TBJ_JFET  
Vin = 0.04*sen(2*PI*1000.0*t) + 0.04*sen(2*PI*1200.0*t)
Is = 1.00e-11  Idss = 2.00
Vt = 0.026     Vp   = -2.00
Tensiones de polarización
Vbe = 0.790
Vgs = -0.600
Resolución de ploteo = 400.0 puntos por período

t [s]   	Vin [V] 	Ic [mA] 	Id [mA] 	
 0.000000	 0.000000	 156.989563	 0.980000
 0.000012	 0.006903	 204.724960	 0.989688
 0.000025	 0.013753	 266.433929	 0.999348
 0.000037	 0.020497	 345.344513	 1.008906
 0.000050	 0.027086	 444.937897	 1.018287
 0.000062	 0.033467	 568.708984	 1.027414
 0.000075	 0.039593	 719.800415	 1.036214
 0.000087	 0.045416	 900.505188	 1.044614
 0.000100	 0.050893	 1111.662964	 1.052546
 0.000112	 0.055982	 1352.007324	 1.059942
 0.000125	 0.060645	 1617.562866	 1.066742
 0.000137	 0.064846	 1901.220825	 1.072887
 0.000150	 0.068554	 2192.638916	 1.078325
 0.000162	 0.071741	 2478.579346	 1.083010
 0.000175	 0.074384	 2743.761719	 1.086903
 0.000187	 0.076463	 2972.182861	 1.089971
 0.000200	 0.077963	 3148.772949	 1.092188
 0.000212	 0.078875	 3261.149902	 1.093536
 0.000225	 0.079192	 3301.163574	 1.094005
 0.000237	 0.078913	 3265.960449	 1.093592
 0.000250	 0.078042	 3158.352051	 1.092304
 0.000262	 0.076587	 2986.418213	 1.090154
 0.000275	 0.074560	 2762.429932	 1.087163
 0.000287	 0.071978	 2501.303467	 1.083360
 0.000300	 0.068863	 2218.865479	 1.078779
 0.000312	 0.065240	 1930.226807	 1.073463
 0.000325	 0.061137	 1648.489990	 1.067461
 0.000337	 0.056589	 1383.928711	 1.060826
 0.000350	 0.051631	 1143.655884	 1.053616
 0.000362	 0.046302	 931.724121	 1.045895
 0.000375	 0.040645	 749.534485	 1.037729
 0.000388	 0.034704	 596.417603	 1.029188
 0.000400	 0.028525	 470.262421	 1.020342
 0.000413	 0.022157	 368.099731	 1.011265
 0.000425	 0.015648	 286.584106	 1.002030
 0.000438	 0.009050	 222.351913	 0.992711
 0.000450	 0.002413	 172.258636	 0.983381
 0.000463	-0.004212	 133.512833	 0.974113
 0.000475	-0.010774	 103.731873	 0.964975
 0.000488	-0.017223	 80.943527	 0.956036
 0.000500	-0.023511	 63.554691	 0.947361
 0.000513	-0.029591	 50.303619	 0.939011
 0.000525	-0.035416	 40.206467	 0.931045
 0.000538	-0.040944	 32.505741	 0.923517
 0.000550	-0.046134	 26.623915	 0.916477
 0.000562	-0.050947	 22.124010	 0.909971
 0.000575	-0.055351	 18.677395	 0.904041
 0.000587	-0.059312	 16.038099	 0.898723
 0.000600	-0.062803	 14.022863	 0.894048
 0.000612	-0.065800	 12.495893	 0.890044
 0.000625	-0.068284	 11.357357	 0.886734
 0.000637	-0.070239	 10.534902	 0.884133
 0.000650	-0.071652	 9.977466	 0.882254
 0.000662	-0.072517	 9.650905	 0.881105
 0.000675	-0.072831	 9.535053	 0.880688
 0.000687	-0.072595	 9.621938	 0.881001
 0.000700	-0.071815	 9.914981	 0.882037
 0.000712	-0.070501	 10.429081	 0.883784
 0.000725	-0.068666	 11.191593	 0.886225
 0.000737	-0.066329	 12.244173	 0.889339
 0.000750	-0.063512	 13.645690	 0.893101
 0.000762	-0.060239	 15.476285	 0.897480
 0.000775	-0.056539	 17.842823	 0.902444
 0.000787	-0.052445	 20.885941	 0.907953
 0.000800	-0.047990	 24.789001	 0.913965
 0.000812	-0.043213	 29.789043	 0.920435
 0.000825	-0.038152	 36.189919	 0.927314
 0.000837	-0.032850	 44.377365	 0.934550
 0.000850	-0.027348	 54.835461	 0.942087
 0.000862	-0.021691	 68.163338	 0.949868
 0.000875	-0.015924	 85.090073	 0.957833
 0.000887	-0.010093	 106.484711	 0.965921
 0.000900	-0.004242	 133.356964	 0.974070
 0.000912	 0.001583	 166.843170	 0.982217
 0.000925	 0.007337	 208.170990	 0.990298
 0.000937	 0.012976	 258.596069	 0.998251
 0.000950	 0.018459	 319.305725	 1.006013
 0.000962	 0.023745	 391.286560	 1.013525
 0.000975	 0.028794	 475.160034	 1.020727
 0.000987	 0.033571	 570.995178	 1.027563
 0.001000	 0.038042	 678.118347	 1.033982
 0.001012	 0.042175	 794.947510	 1.039934
 0.001025	 0.045941	 918.883789	 1.045373
 0.001037	 0.049318	 1046.296265	 1.050261
 0.001050	 0.052281	 1172.626099	 1.054561
 0.001062	 0.054815	 1292.625977	 1.058243
 0.001075	 0.056903	 1400.723022	 1.061283
 0.001087	 0.058535	 1491.480225	 1.063662
 0.001100	 0.059704	 1560.092773	 1.065368
 0.001112	 0.060408	 1602.861816	 1.066395
 0.001125	 0.060645	 1617.565430	 1.066742
 0.001137	 0.060421	 1603.677002	 1.066414
 0.001150	 0.059743	 1562.395996	 1.065424
 0.001162	 0.058622	 1496.487183	 1.063789
 0.001175	 0.057074	 1409.962891	 1.061532
 0.001187	 0.055115	 1307.658447	 1.058680
 0.001200	 0.052768	 1194.765503	 1.055267
 0.001212	 0.050055	 1076.391235	 1.051330
 0.001225	 0.047003	 957.188599	 1.046909
 0.001237	 0.043642	 841.094788	 1.042051
 0.001250	 0.040001	 731.185303	 1.036801
 0.001262	 0.036113	 629.637573	 1.031210
 0.001275	 0.032013	 537.780640	 1.025331
 0.001287	 0.027736	 456.207336	 1.019215
 0.001300	 0.023318	 384.918060	 1.012917
 0.001312	 0.018796	 323.474213	 1.006492
 0.001325	 0.014208	 271.142456	 0.999992
 0.001337	 0.009590	 227.019211	 0.993472
 0.001350	 0.004980	 190.129776	 0.986984
 0.001362	 0.000413	 159.501450	 0.980578
 0.001375	-0.004075	 134.213181	 0.974303
 0.001387	-0.008451	 113.425491	 0.968204
 0.001400	-0.012681	 96.395187	 0.962327
 0.001412	-0.016734	 82.479256	 0.956712
 0.001425	-0.020583	 71.131432	 0.951396
 0.001437	-0.024199	 61.894531	 0.946414
 0.001450	-0.027560	 54.390621	 0.941796
 0.001462	-0.030642	 48.310497	 0.937571
 0.001475	-0.033427	 43.403507	 0.933761
 0.001487	-0.035898	 39.468208	 0.930387
 0.001500	-0.038042	 36.344143	 0.927465
 0.001512	-0.039848	 33.904831	 0.925007
 0.001525	-0.041309	 32.051968	 0.923020
 0.001537	-0.042421	 30.710651	 0.921511
 0.001550	-0.043181	 29.825657	 0.920479
 0.001562	-0.043592	 29.358475	 0.919922
 0.001575	-0.043657	 29.285109	 0.919834
 0.001587	-0.043383	 29.594473	 0.920204
 0.001600	-0.042782	 30.287271	 0.921021
 0.001612	-0.041864	 31.375313	 0.922267
 0.001625	-0.040645	 32.881119	 0.923923
 0.001637	-0.039142	 34.837791	 0.925967
 0.001650	-0.037375	 37.289001	 0.928374
 0.001662	-0.035363	 40.289040	 0.931118
 0.001675	-0.033129	 43.902748	 0.934168
 0.001687	-0.030698	 48.205280	 0.937493
 0.001700	-0.028095	 53.281403	 0.941061
 0.001712	-0.025346	 59.224262	 0.944837
 0.001725	-0.022477	 66.133331	 0.948785
 0.001737	-0.019516	 74.111359	 0.952868
 0.001750	-0.016489	 83.260132	 0.957051
 0.001762	-0.013425	 93.674843	 0.961295
 0.001775	-0.010350	 105.437164	 0.965564
 0.001787	-0.007289	 118.606926	 0.969821
 0.001800	-0.004270	 133.212814	 0.974031
 0.001812	-0.001316	 149.242508	 0.978159
 0.001825	 0.001550	 166.632919	 0.982171
 0.001837	 0.004305	 185.261658	 0.986037
 0.001850	 0.006930	 204.940430	 0.989726
 0.001862	 0.009406	 225.411987	 0.993212
 0.001875	 0.011715	 246.351181	 0.996470
 0.001887	 0.013844	 267.371246	 0.999477
 0.001900	 0.015780	 288.035431	 1.002216
 0.001912	 0.017511	 307.874023	 1.004669
 0.001925	 0.019031	 326.405548	 1.006824
 0.001937	 0.020333	 343.161194	 1.008672
 0.001950	 0.021412	 357.710022	 1.010206
 0.001962	 0.022268	 369.683197	 1.011423
 0.001975	 0.022901	 378.794800	 1.012324
 0.001987	 0.023314	 384.857086	 1.012911
 0.002000	 0.023511	 387.789703	 1.013192
 0.002012	 0.023500	 387.620880	 1.013176
 0.002025	 0.023289	 384.481934	 1.012875
 0.002037	 0.022887	 378.595276	 1.012304
 0.002050	 0.022309	 370.257477	 1.011481
 0.002062	 0.021565	 359.819458	 1.010424
 0.002075	 0.020672	 347.665222	 1.009154
 0.002087	 0.019644	 334.191345	 1.007694
 0.002100	 0.018499	 319.788635	 1.006069
 0.002112	 0.017253	 304.826508	 1.004303
 0.002125	 0.015924	 289.641510	 1.002421
 0.002137	 0.014531	 274.529205	 1.000449
 0.002150	 0.013091	 259.740143	 0.998413
 0.002162	 0.011623	 245.478790	 0.996339
 0.002175	 0.010144	 231.904877	 0.994253
 0.002187	 0.008671	 219.136917	 0.992178
 0.002200	 0.007222	 207.256836	 0.990137
 0.002212	 0.005812	 196.315186	 0.988154
 0.002225	 0.004456	 186.336655	 0.986248
 0.002237	 0.003167	 177.325394	 0.984439
 0.002250	 0.001958	 169.269852	 0.982743
 0.002262	 0.000840	 162.147079	 0.981177
 0.002275	-0.000177	 155.926376	 0.979753
 0.002287	-0.001085	 150.572311	 0.978481
 0.002300	-0.001879	 146.047012	 0.977372
 0.002312	-0.002552	 142.311920	 0.976430
 0.002325	-0.003103	 139.329025	 0.975661
 0.002337	-0.003529	 137.061569	 0.975065
 0.002350	-0.003832	 135.474442	 0.974642
 0.002362	-0.004013	 134.534149	 0.974389
 0.002375	-0.004076	 134.208496	 0.974301
 0.002387	-0.004027	 134.466019	 0.974371
 0.002400	-0.003871	 135.275269	 0.974589
 0.002412	-0.003616	 136.603775	 0.974944
 0.002425	-0.003274	 138.417038	 0.975422
 0.002437	-0.002852	 140.677322	 0.976011
 0.002450	-0.002365	 143.342407	 0.976692
 0.002462	-0.001822	 146.364441	 0.977451
 0.002475	-0.001238	 149.688873	 0.978267
 0.002487	-0.000626	 153.253494	 0.979123
 0.002500	-0.000000	 156.987915	 0.980000
 0.002512	 0.000626	 160.813400	 0.980876
 0.002525	 0.001238	 164.643051	 0.981733
 0.002537	 0.001822	 168.382828	 0.982552
 0.002550	 0.002364	 171.933060	 0.983312
 0.002562	 0.002852	 175.190628	 0.983997
 0.002575	 0.003273	 178.051834	 0.984588
 0.002587	 0.003616	 180.415787	 0.985069
 0.002600	 0.003870	 182.188187	 0.985426
 0.002612	 0.004026	 183.285248	 0.985645
 0.002625	 0.004076	 183.637634	 0.985715
 0.002637	 0.004013	 183.193817	 0.985627
 0.002650	 0.003833	 181.923050	 0.985373
 0.002662	 0.003530	 179.817184	 0.984948
 0.002675	 0.003103	 176.891556	 0.984349
 0.002687	 0.002553	 173.184570	 0.983577
 0.002700	 0.001879	 168.756119	 0.982633
 0.002712	 0.001086	 163.684967	 0.981521
 0.002725	 0.000178	 158.065094	 0.980249
 0.002737	-0.000840	 152.001541	 0.978825
 0.002750	-0.001957	 145.605865	 0.977262
 0.002762	-0.003166	 138.991669	 0.975573
 0.002775	-0.004455	 132.270355	 0.973773
 0.002787	-0.005811	 125.547424	 0.971882
 0.002800	-0.007221	 118.919617	 0.969917
 0.002812	-0.008670	 112.472733	 0.967899
 0.002825	-0.010143	 106.280396	 0.965852
 0.002837	-0.011622	 100.403542	 0.963797
 0.002850	-0.013090	 94.890694	 0.961760
 0.002862	-0.014530	 89.778770	 0.959764
 0.002875	-0.015923	 85.094322	 0.957835
 0.002887	-0.017252	 80.855125	 0.955997
 0.002900	-0.018497	 77.071877	 0.954275
 0.002912	-0.019643	 73.750031	 0.952693
 0.002925	-0.020671	 70.891525	 0.951275
 0.002937	-0.021564	 68.496574	 0.950042
 0.002950	-0.022308	 66.565216	 0.949018
 0.002962	-0.022887	 65.098885	 0.948220
 0.002975	-0.023288	 64.101784	 0.947667
 0.002987	-0.023500	 63.582275	 0.947376
 0.003000	-0.023511	 63.554157	 0.947360
 0.003012	-0.023314	 64.037987	 0.947632
 0.003025	-0.022902	 65.062393	 0.948200
 0.003037	-0.022269	 66.665489	 0.949072
 0.003050	-0.021413	 68.896393	 0.950251
 0.003062	-0.020334	 71.816818	 0.951740
 0.003075	-0.019032	 75.502892	 0.953536
 0.003087	-0.017513	 80.046982	 0.955636
 0.003100	-0.015781	 85.559662	 0.958031
 0.003112	-0.013846	 92.171661	 0.960712
 0.003125	-0.011717	 100.035629	 0.963665
 0.003137	-0.009408	 109.327614	 0.966874
 0.003150	-0.006932	 120.247742	 0.970319
 0.003162	-0.004308	 133.020020	 0.973979
 0.003175	-0.001552	 147.890396	 0.977828
 0.003187	 0.001313	 165.122711	 0.981839
 0.003200	 0.004267	 184.991684	 0.985983
 0.003212	 0.007287	 207.772186	 0.990228
 0.003225	 0.010347	 233.723999	 0.994539
 0.003237	 0.013422	 263.071655	 0.998881
 0.003250	 0.016487	 295.978577	 1.003217
 0.003262	 0.019513	 332.516571	 1.007509
 0.003275	 0.022475	 372.630890	 1.011717
 0.003287	 0.025344	 416.103302	 1.015802
 0.003300	 0.028093	 462.516327	 1.019725
 0.003312	 0.030696	 511.223022	 1.023446
 0.003325	 0.033127	 561.327026	 1.026927
 0.003337	 0.035361	 611.679321	 1.030130
 0.003350	 0.037373	 660.896423	 1.033020
 0.003362	 0.039141	 707.403503	 1.035563
 0.003375	 0.040644	 749.506226	 1.037728
 0.003387	 0.041863	 785.485291	 1.039485
 0.003400	 0.042781	 813.711365	 1.040809
 0.003412	 0.043383	 832.769165	 1.041677
 0.003425	 0.043657	 841.575745	 1.042072
 0.003437	 0.043592	 839.482300	 1.041979
 0.003450	 0.043182	 826.342407	 1.041386
 0.003462	 0.042422	 802.539001	 1.040290
 0.003475	 0.041310	 768.963257	 1.038688
 0.003487	 0.039850	 726.948608	 1.036583
 0.003500	 0.038044	 678.165771	 1.033985
 0.003512	 0.035900	 624.493103	 1.030904
 0.003525	 0.033429	 567.877808	 1.027359
 0.003537	 0.030644	 510.202606	 1.023372
 0.003550	 0.027562	 453.173340	 1.018967
 0.003562	 0.024202	 398.235474	 1.014176
 0.003575	 0.020586	 346.524750	 1.009032
 0.003587	 0.016738	 298.850647	 1.003573
 0.003600	 0.012684	 255.709213	 0.997839
 0.003612	 0.008455	 217.316864	 0.991872
 0.003625	 0.004079	 183.658386	 0.985719
 0.003637	-0.000409	 154.540649	 0.979428
 0.003650	-0.004976	 129.645691	 0.973046
 0.003662	-0.009586	 108.579041	 0.966625
 0.003675	-0.014204	 90.909851	 0.960215
 0.003687	-0.018792	 76.202309	 0.953867
 0.003700	-0.023314	 64.038063	 0.947632
 0.003712	-0.027732	 54.030933	 0.941559
 0.003725	-0.032009	 45.834999	 0.935699
 0.003737	-0.036110	 39.147942	 0.930098
 0.003750	-0.039997	 33.710781	 0.924804
 0.003762	-0.043639	 29.305393	 0.919858
 0.003775	-0.047001	 25.750797	 0.915304
 0.003787	-0.050052	 22.898832	 0.911179
 0.003800	-0.052765	 20.629829	 0.907520
 0.003812	-0.055113	 18.848577	 0.904360
 0.003825	-0.057072	 17.480724	 0.901728
 0.003837	-0.058621	 16.469788	 0.899649
 0.003850	-0.059742	 15.774789	 0.898146
 0.003862	-0.060420	 15.368490	 0.897237
 0.003875	-0.060645	 15.236306	 0.896936
 0.003887	-0.060408	 15.375834	 0.897253
 0.003900	-0.059705	 15.797108	 0.898195
 0.003912	-0.058536	 16.523584	 0.899763
 0.003925	-0.056904	 17.593952	 0.901953
 0.003937	-0.054816	 19.065025	 0.904759
 0.003950	-0.052284	 21.015779	 0.908170
 0.003962	-0.049320	 23.552980	 0.912168
 0.003975	-0.045944	 26.818584	 0.916734
 0.003987	-0.042177	 30.999481	 0.921841
 0.004000	-0.038045	 36.339951	 0.927461
 0.004012	-0.033574	 43.157368	 0.933559
 0.004025	-0.028798	 51.861568	 0.940098
 0.004037	-0.023748	 62.978069	 0.947034
 0.004050	-0.018463	 77.175041	 0.954323
 0.004062	-0.012980	 95.293091	 0.961913
 0.004075	-0.007340	 118.375961	 0.969751
 0.004087	-0.001586	 147.698517	 0.977781
 0.004100	 0.004239	 184.786499	 0.985943
 0.004112	 0.010089	 231.419769	 0.994176
 0.004125	 0.015921	 289.608276	 1.002416
 0.004137	 0.021688	 361.527740	 1.010599
 0.004150	 0.027345	 449.400787	 1.018657
 0.004162	 0.032847	 555.311890	 1.026525
 0.004175	 0.038150	 680.948425	 1.034138
 0.004187	 0.043211	 827.273071	 1.041429
 0.004200	 0.047988	 994.145813	 1.048335
 0.004212	 0.052443	 1179.936768	 1.054795
 0.004225	 0.056538	 1381.188721	 1.060751
 0.004238	 0.060237	 1592.405029	 1.066147
 0.004250	 0.063511	 1806.044434	 1.070932
 0.004263	 0.066329	 2012.788208	 1.075060
 0.004275	 0.068666	 2202.109863	 1.078490
 0.004288	 0.070501	 2363.131104	 1.081186
 0.004300	 0.071815	 2485.678711	 1.083120
 0.004313	 0.072595	 2561.396729	 1.084269
 0.004325	 0.072831	 2584.750244	 1.084616
 0.004338	 0.072517	 2553.734131	 1.084154
 0.004350	 0.071652	 2470.160156	 1.082880
 0.004363	 0.070239	 2339.462646	 1.080801
 0.004375	 0.068285	 2170.052734	 1.077930
 0.004388	 0.065801	 1972.335571	 1.074286
 0.004400	 0.062803	 1757.565918	 1.069897
 0.004413	 0.059312	 1536.721802	 1.064796
 0.004425	 0.055351	 1319.566650	 1.059023
 0.004438	 0.050948	 1113.994263	 1.052625
 0.004450	 0.046134	 925.707520	 1.045652
 0.004463	 0.040944	 758.200806	 1.038160
 0.004475	 0.035416	 612.980713	 1.030210
 0.004488	 0.029591	 489.938599	 1.021865
 0.004500	 0.023511	 387.785278	 1.013192
 0.004513	 0.017223	 304.477386	 1.004260
 0.004525	 0.010773	 237.587189	 0.995141
 0.004538	 0.004211	 184.590942	 0.985904
 0.004550	-0.002414	 143.070633	 0.976623
 0.004563	-0.009051	 110.838043	 0.967370
 0.004575	-0.015649	 85.995544	 0.958214
 0.004588	-0.022157	 66.951614	 0.949225
 0.004600	-0.028526	 52.406475	 0.940471
 0.004613	-0.034705	 41.321266	 0.932015
 0.004625	-0.040646	 32.879990	 0.923921
 0.004638	-0.046303	 26.450596	 0.916247
 0.004650	-0.051632	 21.549004	 0.909048
 0.004663	-0.056590	 17.807749	 0.902375
 0.004675	-0.061138	 14.949853	 0.896275
 0.004688	-0.065241	 12.767793	 0.890791
 0.004700	-0.068864	 11.106940	 0.885962
 0.004713	-0.071979	 9.852825	 0.881820
 0.004725	-0.074561	 8.921502	 0.878395
 0.004738	-0.076588	 8.252417	 0.875710
 0.004750	-0.078043	 7.803226	 0.873786
 0.004763	-0.078914	 7.546178	 0.872635
 0.004775	-0.079192	 7.465771	 0.872267
 0.004788	-0.078875	 7.557446	 0.872686
 0.004800	-0.077963	 7.827241	 0.873891
 0.004813	-0.076462	 8.292381	 0.875877
 0.004825	-0.074382	 8.982829	 0.878631
 0.004838	-0.071739	 9.944018	 0.882138
 0.004850	-0.068552	 11.240946	 0.886377
 0.004863	-0.064844	 12.964108	 0.891321
 0.004875	-0.060643	 15.237700	 0.896939
 0.004888	-0.055980	 18.230846	 0.903195
 0.004900	-0.050890	 22.172668	 0.910048
 0.004913	-0.045413	 27.372215	 0.917453
 0.004925	-0.039589	 34.244347	 0.925359
 0.004938	-0.033463	 43.342644	 0.933712
 0.004950	-0.027082	 55.400074	 0.942453
 0.004963	-0.020493	 71.377449	 0.951520
 0.004975	-0.013748	 92.518242	 0.960847
 0.004988	-0.006898	 120.406219	 0.970367
 0.005000	 0.000005	 157.018631	 0.980007
 0.005013	 0.006908	 204.763641	 0.989694
 0.005025	 0.013758	 266.484863	 0.999355
 0.005038	 0.020502	 345.410736	 1.008914
 0.005050	 0.027091	 445.022797	 1.018294
 0.005063	 0.033472	 568.815979	 1.027421
 0.005075	 0.039597	 719.932556	 1.036220
 0.005088	 0.045421	 900.664795	 1.044621
 0.005100	 0.050898	 1111.851074	 1.052552
 0.005113	 0.055986	 1352.223022	 1.059948
 0.005125	 0.060649	 1617.802002	 1.066747
 0.005138	 0.064849	 1901.476807	 1.072892
 0.005150	 0.068557	 2192.900879	 1.078330
 0.005163	 0.071743	 2478.835205	 1.083014
 0.005175	 0.074386	 2743.995117	 1.086907
 0.005188	 0.076464	 2972.377930	 1.089974
 0.005200	 0.077964	 3148.915527	 1.092190
 0.005213	 0.078876	 3261.225586	 1.093537
 0.005225	 0.079192	 3301.165527	 1.094005
 0.005238	 0.078913	 3265.886719	 1.093592
 0.005250	 0.078041	 3158.205322	 1.092303
 0.005263	 0.076585	 2986.206787	 1.090152
 0.005275	 0.074557	 2762.167236	 1.087160
 0.005288	 0.071975	 2501.004639	 1.083355
 0.005300	 0.068859	 2218.546875	 1.078774
 0.005313	 0.065235	 1929.904297	 1.073457
 0.005325	 0.061132	 1648.177246	 1.067454
 0.005338	 0.056584	 1383.636108	 1.060818
 0.005350	 0.051625	 1143.390503	 1.053607
 0.005363	 0.046296	 931.489990	 1.045886
 0.005375	 0.040638	 749.332886	 1.037719
 0.005388	 0.034696	 596.247742	 1.029177
 0.005400	 0.028517	 470.121948	 1.020331
 0.005413	 0.022148	 367.985413	 1.011253
 0.005425	 0.015640	 286.492310	 1.002018
 0.005438	 0.009042	 222.279099	 0.992699
 0.005450	 0.002405	 172.201385	 0.983369
 0.005463	-0.004220	 133.468155	 0.974101
 0.005475	-0.010782	 103.697205	 0.964963
 0.005488	-0.017232	 80.916718	 0.956024
 0.005500	-0.023520	 63.534012	 0.947349
 0.005513	-0.029599	 50.287647	 0.939000
 0.005525	-0.035424	 40.194130	 0.931034
 0.005538	-0.040951	 32.496201	 0.923506
 0.005550	-0.046141	 26.616522	 0.916467
 0.005563	-0.050954	 22.118280	 0.909962
 0.005575	-0.055357	 18.672947	 0.904033
 0.005588	-0.059317	 16.034653	 0.898715
 0.005600	-0.062808	 14.020207	 0.894042
 0.005613	-0.065804	 12.493869	 0.890039
 0.005625	-0.068288	 11.355850	 0.886729
 0.005638	-0.070241	 10.533830	 0.884129
 0.005650	-0.071654	 9.976770	 0.882252
 0.005663	-0.072518	 9.650554	 0.881104
 0.005675	-0.072831	 9.535031	 0.880688
 0.005688	-0.072595	 9.622249	 0.881002
 0.005700	-0.071814	 9.915646	 0.882039
 0.005713	-0.070498	 10.430148	 0.883787
 0.005725	-0.068663	 11.193123	 0.886229
 0.005738	-0.066325	 12.246264	 0.889345
 0.005750	-0.063506	 13.648474	 0.893108
 0.005763	-0.060232	 15.479939	 0.897488
 0.005775	-0.056532	 17.847580	 0.902453
 0.005788	-0.052437	 20.892115	 0.907963
 0.005800	-0.047982	 24.796993	 0.913976
 0.005813	-0.043204	 29.799387	 0.920448
 0.005825	-0.038143	 36.203297	 0.927328
 0.005838	-0.032840	 44.394630	 0.934564
 0.005850	-0.027337	 54.857716	 0.942101
 0.005863	-0.021680	 68.191933	 0.949883
 0.005875	-0.015913	 85.126678	 0.957848
 0.005888	-0.010081	 106.531296	 0.965937
 0.005900	-0.004230	 133.415817	 0.974086
 0.005913	 0.001594	 166.916901	 0.982233
 0.005925	 0.007348	 208.262344	 0.990314
 0.005938	 0.012988	 258.707916	 0.998267
 0.005950	 0.018470	 319.440613	 1.006029
 0.005963	 0.023755	 391.446686	 1.013540
 0.005975	 0.028804	 475.346558	 1.020741
 0.005988	 0.033581	 571.208008	 1.027577
 0.006000	 0.038051	 678.355652	 1.033995
 0.006013	 0.042183	 795.205078	 1.039946
 0.006025	 0.045949	 919.155396	 1.045385
 0.006038	 0.049325	 1046.572998	 1.050271
 0.006050	 0.052287	 1172.897583	 1.054569
 0.006063	 0.054820	 1292.879517	 1.058250
 0.006075	 0.056907	 1400.946045	 1.061289
 0.006088	 0.058538	 1491.660278	 1.063667
 0.006100	 0.059706	 1560.219849	 1.065372
 0.006113	 0.060409	 1602.927979	 1.066397
 0.006125	 0.060645	 1617.566162	 1.066742
 0.006138	 0.060420	 1603.612305	 1.066413
 0.006150	 0.059741	 1562.269531	 1.065421
 0.006163	 0.058619	 1496.305786	 1.063785
 0.006175	 0.057069	 1409.736938	 1.061526
 0.006188	 0.055110	 1307.398926	 1.058673
 0.006200	 0.052762	 1194.484985	 1.055258
 0.006213	 0.050048	 1076.101074	 1.051319
 0.006225	 0.046995	 956.899231	 1.046898
 0.006238	 0.043633	 840.815002	 1.042038
 0.006250	 0.039991	 730.921997	 1.036788
 0.006263	 0.036103	 629.395142	 1.031196
 0.006275	 0.032002	 537.561890	 1.025316
 0.006288	 0.027725	 456.013306	 1.019199
 0.006300	 0.023307	 384.748535	 1.012901
 0.006313	 0.018785	 323.327972	 1.006475
 0.006325	 0.014196	 271.017670	 0.999975
 0.006338	 0.009578	 226.913757	 0.993455
 0.006350	 0.004968	 190.041321	 0.986967
 0.006363	 0.000401	 159.427719	 0.980561
 0.006375	-0.004087	 134.152023	 0.974286
 0.006388	-0.008462	 113.374962	 0.968188
 0.006400	-0.012692	 96.353569	 0.962312
 0.006413	-0.016745	 82.445053	 0.956697
 0.006425	-0.020593	 71.103371	 0.951382
 0.006438	-0.024209	 61.871563	 0.946400
 0.006450	-0.027569	 54.371857	 0.941784
 0.006463	-0.030650	 48.295219	 0.937560
 0.006475	-0.033434	 43.391129	 0.933751
 0.006488	-0.035904	 39.458263	 0.930378
 0.006500	-0.038047	 36.336250	 0.927457
 0.006513	-0.039853	 33.898701	 0.925000
 0.006525	-0.041313	 32.047375	 0.923015
 0.006538	-0.042424	 30.707434	 0.921507
 0.006550	-0.043183	 29.823692	 0.920476
 0.006563	-0.043592	 29.357687	 0.919921
 0.006575	-0.043656	 29.285465	 0.919834
 0.006588	-0.043382	 29.595964	 0.920206
 0.006600	-0.042779	 30.289940	 0.921024
 0.006613	-0.041861	 31.379223	 0.922271
 0.006625	-0.040641	 32.886372	 0.923928
 0.006638	-0.039137	 34.844513	 0.925974
 0.006650	-0.037369	 37.297371	 0.928382
 0.006663	-0.035356	 40.299252	 0.931127
 0.006675	-0.033122	 43.915054	 0.934178
 0.006688	-0.030691	 48.219944	 0.937504
 0.006700	-0.028087	 53.298737	 0.941073
 0.006713	-0.025337	 59.244606	 0.944849
 0.006725	-0.022468	 66.157043	 0.948797
 0.006738	-0.019506	 74.138809	 0.952882
 0.006750	-0.016480	 83.291679	 0.957064
 0.006763	-0.013415	 93.710823	 0.961309
 0.006775	-0.010340	 105.477867	 0.965578
 0.006788	-0.007279	 118.652557	 0.969835
 0.006800	-0.004260	 133.263458	 0.974045
 0.006813	-0.001306	 149.298080	 0.978172
 0.006825	 0.001559	 166.693192	 0.982184
 0.006838	 0.004314	 185.326141	 0.986049
 0.006850	 0.006939	 205.008423	 0.989738
 0.006863	 0.009414	 225.482529	 0.993223
 0.006875	 0.011723	 246.423080	 0.996480
 0.006888	 0.013851	 267.443085	 0.999487
 0.006900	 0.015786	 288.105621	 1.002225
 0.006913	 0.017517	 307.940857	 1.004677
 0.006925	 0.019036	 326.467377	 1.006831
 0.006938	 0.020337	 343.216339	 1.008678
 0.006950	 0.021416	 357.756989	 1.010211
 0.006963	 0.022271	 369.720703	 1.011427
 0.006975	 0.022903	 378.821899	 1.012327
 0.006988	 0.023315	 384.873199	 1.012913
 0.007000	 0.023512	 387.794586	 1.013193
 0.007013	 0.023500	 387.614746	 1.013176
 0.007025	 0.023288	 384.465332	 1.012874
 0.007038	 0.022886	 378.569031	 1.012302
 0.007050	 0.022306	 370.222748	 1.011477
 0.007063	 0.021562	 359.777466	 1.010419
 0.007075	 0.020668	 347.617371	 1.009149
 0.007088	 0.019640	 334.139099	 1.007689
 0.007100	 0.018494	 319.733337	 1.006063
 0.007113	 0.017248	 304.769501	 1.004296
 0.007125	 0.015919	 289.583954	 1.002413
 0.007138	 0.014525	 274.472137	 1.000441
 0.007150	 0.013085	 259.684479	 0.998405
 0.007163	 0.011617	 245.425217	 0.996331
 0.007175	 0.010138	 231.853943	 0.994245
 0.007188	 0.008666	 219.089050	 0.992170
 0.007200	 0.007217	 207.212326	 0.990129
 0.007213	 0.005807	 196.274200	 0.988146
 0.007225	 0.004451	 186.299286	 0.986241
 0.007238	 0.003162	 177.291656	 0.984432
 0.007250	 0.001954	 169.239716	 0.982737
 0.007263	 0.000836	 162.120468	 0.981171
 0.007275	-0.000181	 155.903198	 0.979747
 0.007288	-0.001089	 150.552444	 0.978477
 0.007300	-0.001881	 146.030319	 0.977368
 0.007313	-0.002555	 142.298294	 0.976427
 0.007325	-0.003105	 139.318329	 0.975658
 0.007338	-0.003531	 137.053680	 0.975063
 0.007350	-0.003833	 135.469269	 0.974641
 0.007363	-0.004014	 134.531555	 0.974389
 0.007375	-0.004076	 134.208374	 0.974301
 0.007388	-0.004026	 134.468277	 0.974372
 0.007400	-0.003870	 135.279770	 0.974590
 0.007413	-0.003615	 136.610428	 0.974945
 0.007425	-0.003272	 138.425705	 0.975425
 0.007438	-0.002851	 140.687836	 0.976013
 0.007450	-0.002362	 143.354599	 0.976696
 0.007463	-0.001820	 146.378113	 0.977454
 0.007475	-0.001236	 149.703766	 0.978271
 0.007488	-0.000624	 153.269333	 0.979127
 0.007500	 0.000002	 157.004410	 0.980003
 0.007513	 0.000628	 160.830170	 0.980880
 0.007525	 0.001240	 164.659714	 0.981737
 0.007538	 0.001824	 168.398956	 0.982555
 0.007550	 0.002366	 171.948181	 0.983316
 0.007563	 0.002854	 175.204285	 0.984000
 0.007575	 0.003275	 178.063553	 0.984590
 0.007588	 0.003618	 180.425110	 0.985071
 0.007600	 0.003871	 182.194687	 0.985427
 0.007613	 0.004027	 183.288574	 0.985646
 0.007625	 0.004076	 183.637436	 0.985715
 0.007638	 0.004013	 183.189926	 0.985626
 0.007650	 0.003831	 181.915314	 0.985371
 0.007663	 0.003528	 179.805603	 0.984946
 0.007675	 0.003101	 176.876221	 0.984346
 0.007688	 0.002550	 173.165680	 0.983573
 0.007700	 0.001876	 168.733994	 0.982628
 0.007713	 0.001082	 163.659958	 0.981515
 0.007725	 0.000173	 158.037659	 0.980242
 0.007738	-0.000845	 151.972153	 0.978818
 0.007750	-0.001963	 145.575073	 0.977254
 0.007763	-0.003172	 138.959991	 0.975564
 0.007775	-0.004461	 132.238297	 0.973765
 0.007788	-0.005818	 125.515472	 0.971872
 0.007800	-0.007228	 118.888214	 0.969907
 0.007813	-0.008677	 112.442268	 0.967890
 0.007825	-0.010150	 106.251198	 0.965842
 0.007838	-0.011629	 100.375893	 0.963787
 0.007850	-0.013097	 94.864815	 0.961750
 0.007863	-0.014537	 89.754814	 0.959755
 0.007875	-0.015930	 85.072426	 0.957825
 0.007888	-0.017258	 80.835365	 0.955988
 0.007900	-0.018503	 77.054321	 0.954266
 0.007913	-0.019648	 73.734695	 0.952685
 0.007925	-0.020676	 70.878448	 0.951268
 0.007938	-0.021568	 68.485764	 0.950037
 0.007950	-0.022311	 66.556694	 0.949013
 0.007963	-0.022890	 65.092682	 0.948217
 0.007975	-0.023290	 64.097946	 0.947665
 0.007988	-0.023501	 63.580875	 0.947375
 0.008000	-0.023511	 63.555305	 0.947361
 0.008013	-0.023313	 64.041824	 0.947634
 0.008025	-0.022899	 65.069099	 0.948204
 0.008038	-0.022265	 66.675316	 0.949077
 0.008050	-0.021408	 68.909645	 0.950258
 0.008063	-0.020327	 71.833885	 0.951748
 0.008075	-0.019025	 75.524239	 0.953546
 0.008088	-0.017504	 80.073151	 0.955647
 0.008100	-0.015771	 85.591331	 0.958044
 0.008113	-0.013835	 92.209602	 0.960727
 0.008125	-0.011705	 100.080765	 0.963681
 0.008138	-0.009395	 109.380974	 0.966891
 0.008150	-0.006919	 120.310524	 0.970338
 0.008163	-0.004293	 133.093552	 0.973999
 0.008175	-0.001537	 147.976105	 0.977849
 0.008188	 0.001329	 165.222137	 0.981861
 0.008200	 0.004284	 185.106430	 0.986006
 0.008213	 0.007303	 207.903793	 0.990251
 0.008225	 0.010364	 233.873947	 0.994563
 0.008238	 0.013439	 263.241089	 0.998905
 0.008250	 0.016503	 296.168365	 1.003241
 0.008263	 0.019530	 332.726898	 1.007532
 0.008275	 0.022491	 372.861176	 1.011740
 0.008288	 0.025359	 416.351929	 1.015824
 0.008300	 0.028108	 462.780518	 1.019746
 0.008313	 0.030710	 511.498596	 1.023466
 0.008325	 0.033140	 561.608398	 1.026945
 0.008338	 0.035373	 611.959351	 1.030147
 0.008350	 0.037383	 661.166504	 1.033036
 0.008363	 0.039150	 707.654663	 1.035577
 0.008375	 0.040652	 749.728333	 1.037739
 0.008388	 0.041869	 785.668518	 1.039493
 0.008400	 0.042785	 813.846985	 1.040815
 0.008413	 0.043386	 832.849365	 1.041681
 0.008425	 0.043657	 841.595154	 1.042073
 0.008438	 0.043590	 839.438293	 1.041977
 0.008450	 0.043178	 826.235107	 1.041382
 0.008463	 0.042416	 802.371826	 1.040282
 0.008475	 0.041303	 768.742493	 1.038677
 0.008488	 0.039840	 726.682617	 1.036570
 0.008500	 0.038032	 677.864807	 1.033968
 0.008513	 0.035886	 624.168274	 1.030885
 0.008525	 0.033413	 567.540344	 1.027337
 0.008538	 0.030627	 509.863098	 1.023347
 0.008550	 0.027543	 452.841156	 1.018940
 0.008563	 0.024182	 397.918335	 1.014147
 0.008575	 0.020564	 346.228546	 1.009001
 0.008588	 0.016714	 298.579437	 1.003540
 0.008600	 0.012660	 255.465179	 0.997804
 0.008613	 0.008429	 217.100739	 0.991836
 0.008625	 0.004053	 183.469681	 0.985682
 0.008638	-0.000436	 154.377914	 0.979389
 0.008650	-0.005004	 129.506912	 0.973008
 0.008663	-0.009614	 108.461800	 0.966586
 0.008675	-0.014232	 90.811623	 0.960176
 0.008688	-0.018820	 76.120583	 0.953829
 0.008700	-0.023342	 63.970470	 0.947594
 0.008713	-0.027759	 53.975288	 0.941523
 0.008725	-0.032035	 45.789387	 0.935664
 0.008738	-0.036134	 39.110683	 0.930065
 0.008750	-0.040021	 33.680443	 0.924772
 0.008763	-0.043660	 29.280790	 0.919828
 0.008775	-0.047021	 25.730938	 0.915277
 0.008788	-0.050071	 22.882912	 0.911155
 0.008800	-0.052781	 20.617203	 0.907499
 0.008813	-0.055127	 18.838732	 0.904342
 0.008825	-0.057083	 17.473261	 0.901713
 0.008838	-0.058629	 16.464422	 0.899638
 0.008850	-0.059748	 15.771315	 0.898138
 0.008863	-0.060423	 15.366789	 0.897233
 0.008875	-0.060645	 15.236330	 0.896936
 0.008888	-0.060405	 15.377621	 0.897258
 0.008900	-0.059699	 15.800773	 0.898203
 0.008913	-0.058527	 16.529320	 0.899775
 0.008925	-0.056892	 17.602064	 0.901969
 0.008938	-0.054802	 19.075943	 0.904779
 0.008950	-0.052266	 21.030096	 0.908194
 0.008963	-0.049300	 23.571484	 0.912196
 0.008975	-0.045921	 26.842325	 0.916765
 0.008988	-0.042152	 31.029833	 0.921876
 0.009000	-0.038017	 36.378700	 0.927499
 0.009013	-0.033545	 43.206841	 0.933600
 0.009025	-0.028766	 51.924740	 0.940141
 0.009038	-0.023715	 63.058754	 0.947080
 0.009050	-0.018428	 77.278061	 0.954371
 0.009063	-0.012944	 95.424477	 0.961962
 0.009075	-0.007303	 118.543152	 0.969802
 0.009088	-0.001549	 147.910507	 0.977833
 0.009100	 0.004276	 185.053940	 0.985996
 0.009113	 0.010127	 231.754898	 0.994229
 0.009125	 0.015958	 290.024658	 1.002469
 0.009138	 0.021725	 362.039673	 1.010651
 0.009150	 0.027381	 450.022400	 1.018708
 0.009163	 0.032882	 556.055603	 1.026575
 0.009175	 0.038183	 681.823059	 1.034186
 0.009188	 0.043243	 828.281677	 1.041474
 0.009200	 0.048018	 995.283142	 1.048378
 0.009213	 0.052470	 1181.186890	 1.054835
 0.009225	 0.056563	 1382.522583	 1.060787
 0.009238	 0.060260	 1593.780762	 1.066179
 0.009250	 0.063530	 1807.407104	 1.070960
 0.009263	 0.066345	 2014.073120	 1.075084
 0.009275	 0.068679	 2203.247314	 1.078509
 0.009288	 0.070511	 2364.052979	 1.081201
 0.009300	 0.071822	 2486.323486	 1.083130
 0.009313	 0.072599	 2561.718750	 1.084273
 0.009325	 0.072831	 2584.725098	 1.084616
 0.009338	 0.072514	 2553.360352	 1.084148
 0.009350	 0.071645	 2469.462158	 1.082870
 0.009363	 0.070228	 2338.486084	 1.080785
 0.009375	 0.068270	 2168.859131	 1.077909
 0.009388	 0.065783	 1970.996460	 1.074260
 0.009400	 0.062782	 1756.153198	 1.069866
 0.009413	 0.059288	 1535.303589	 1.064761
 0.009425	 0.055324	 1318.199829	 1.058984
 0.009438	 0.050918	 1112.722900	 1.052582
 0.009450	 0.046102	 924.560913	 1.045605
 0.009463	 0.040909	 757.194641	 1.038110
 0.009475	 0.035379	 612.119141	 1.030157
 0.009488	 0.029552	 489.216553	 1.021810
 0.009500	 0.023471	 387.191589	 1.013135
 0.009513	 0.017182	 303.997284	 1.004202
 0.009525	 0.010731	 237.204544	 0.995081
 0.009538	 0.004169	 184.289642	 0.985845
 0.009550	-0.002457	 142.835800	 0.976564
 0.009563	-0.009093	 110.656479	 0.967310
 0.009575	-0.015691	 85.856049	 0.958155
 0.009588	-0.022199	 66.844910	 0.949168
 0.009600	-0.028566	 52.325089	 0.940415
 0.009613	-0.034744	 41.259285	 0.931962
 0.009625	-0.040684	 32.832790	 0.923871
 0.009638	-0.046339	 26.414629	 0.916199
 0.009650	-0.051665	 21.521568	 0.909003
 0.009663	-0.056621	 17.786795	 0.902334
 0.009675	-0.061166	 14.933846	 0.896238
 0.009688	-0.065265	 12.755586	 0.890758
 0.009700	-0.068886	 11.097679	 0.885933
 0.009713	-0.071997	 9.845880	 0.881796
 0.009725	-0.074575	 8.916413	 0.878375
 0.009738	-0.076599	 8.248860	 0.875695
 0.009750	-0.078050	 7.800980	 0.873776
 0.009763	-0.078917	 7.545108	 0.872630
 0.009775	-0.079192	 7.465812	 0.872267
 0.009788	-0.078871	 7.558600	 0.872691
 0.009800	-0.077955	 7.829586	 0.873901
 0.009813	-0.076450	 8.296063	 0.875892
 0.009825	-0.074367	 8.988090	 0.878651
 0.009838	-0.071721	 9.951204	 0.882163
 0.009850	-0.068530	 11.250556	 0.886406
 0.009863	-0.064818	 12.976820	 0.891355
 0.009875	-0.060614	 15.254447	 0.896977
 0.009888	-0.055948	 18.252890	 0.903238
 0.009900	-0.050856	 22.201719	 0.910094
 0.009913	-0.045377	 27.410570	 0.917502
 0.009925	-0.039551	 34.295086	 0.925411
 0.009938	-0.033423	 43.409859	 0.933767
 0.009950	-0.027040	 55.489162	 0.942510
 0.009963	-0.020450	 71.495438	 0.951579
 0.009975	-0.013704	 92.674187	 0.960908
 0.009988	-0.006854	 120.611519	 0.970428
 0.010000	 0.000049	 157.287384	 0.980069
 0.010013	 0.006952	 205.112762	 0.989757
 0.010025	 0.013801	 266.933960	 0.999417
 0.010038	 0.020545	 345.981659	 1.008975
 0.010050	 0.027132	 445.738251	 1.018353
 0.010063	 0.033512	 569.697876	 1.027478
 0.010075	 0.039636	 720.998840	 1.036276
 0.010088	 0.045457	 901.926270	 1.044673
 0.010100	 0.050932	 1113.306885	 1.052601
 0.010113	 0.056018	 1353.856689	 1.059994
 0.010125	 0.060677	 1619.578613	 1.066789
 0.010138	 0.064875	 1903.339600	 1.072929
 0.010150	 0.068579	 2194.773682	 1.078362
 0.010163	 0.071762	 2480.624268	 1.083042
 0.010175	 0.074401	 2745.598877	 1.086929
 0.010188	 0.076476	 2973.694824	 1.089991
 0.010200	 0.077972	 3149.854004	 1.092201
 0.010213	 0.078880	 3261.719971	 1.093542
 0.010225	 0.079192	 3301.178711	 1.094005
 0.010238	 0.078909	 3265.419678	 1.093586
 0.010250	 0.078034	 3157.293213	 1.092292
 0.010263	 0.076574	 2984.916748	 1.090135
 0.010275	 0.074543	 2760.588623	 1.087138
 0.010288	 0.071957	 2499.238525	 1.083328
 0.010300	 0.068837	 2216.694580	 1.078742
 0.010313	 0.065210	 1928.057007	 1.073421
 0.010325	 0.061105	 1646.411133	 1.067413
 0.010338	 0.056553	 1382.007080	 1.060773
 0.010350	 0.051592	 1141.933960	 1.053559
 0.010363	 0.046260	 930.222839	 1.045835
 0.010375	 0.040601	 748.256836	 1.037665
 0.010388	 0.034657	 595.353149	 1.029121
 0.010400	 0.028477	 469.391724	 1.020273
 0.010413	 0.022107	 367.398865	 1.011194
 0.010425	 0.015598	 286.027557	 1.001958
 0.010438	 0.008999	 221.914978	 0.992639
 0.010450	 0.002362	 171.918732	 0.983309
 0.010463	-0.004263	 133.250320	 0.974041
 0.010475	-0.010824	 103.530212	 0.964905
 0.010488	-0.017273	 80.789154	 0.955967
 0.010500	-0.023560	 63.436768	 0.947294
 0.010513	-0.029637	 50.213558	 0.938947
 0.010525	-0.035460	 40.137653	 0.930984
 0.010538	-0.040986	 32.453102	 0.923460
 0.010550	-0.046173	 26.583574	 0.916424
 0.010563	-0.050984	 22.093052	 0.909922
 0.010575	-0.055384	 18.653622	 0.903997
 0.010588	-0.059341	 16.019867	 0.898683
 0.010600	-0.062829	 14.008955	 0.894014
 0.010613	-0.065822	 12.485397	 0.890015
 0.010625	-0.068302	 11.349617	 0.886710
 0.010638	-0.070252	 10.529445	 0.884115
 0.010650	-0.071661	 9.973964	 0.882242
 0.010663	-0.072522	 9.649152	 0.881099
 0.010675	-0.072832	 9.534946	 0.880688
 0.010688	-0.072591	 9.623467	 0.881007
 0.010700	-0.071807	 9.918226	 0.882048
 0.010713	-0.070488	 10.434226	 0.883801
 0.010725	-0.068649	 11.198917	 0.886247
 0.010738	-0.066308	 12.254096	 0.889367
 0.010750	-0.063487	 13.658784	 0.893134
 0.010763	-0.060210	 15.493326	 0.897519
 0.010775	-0.056507	 17.864832	 0.902487
 0.010788	-0.052409	 20.914263	 0.908000
 0.010800	-0.047952	 24.825380	 0.914017
 0.010813	-0.043172	 29.835735	 0.920491
 0.010825	-0.038109	 36.249813	 0.927373
 0.010838	-0.032805	 44.454105	 0.934611
 0.010850	-0.027301	 54.933609	 0.942151
 0.010863	-0.021643	 68.288513	 0.949933
 0.010875	-0.015876	 85.249084	 0.957900
 0.010888	-0.010044	 106.685577	 0.965989
 0.010900	-0.004193	 133.608917	 0.974139
 0.010913	 0.001632	 167.156464	 0.982285
 0.010925	 0.007385	 208.556458	 0.990366
 0.010938	 0.013023	 259.064514	 0.998317
 0.010950	 0.018505	 319.866913	 1.006078
 0.010963	 0.023789	 391.947998	 1.013587
 0.010975	 0.028836	 475.925293	 1.020786
 0.010988	 0.033611	 571.862366	 1.027620
 0.011000	 0.038078	 679.078552	 1.034035
 0.011013	 0.042208	 795.983154	 1.039982
 0.011025	 0.045972	 919.968323	 1.045418
 0.011038	 0.049345	 1047.394409	 1.050300
 0.011050	 0.052305	 1173.695557	 1.054595
 0.011063	 0.054835	 1293.618652	 1.058272
 0.011075	 0.056919	 1401.590698	 1.061306
 0.011088	 0.058547	 1492.176758	 1.063680
 0.011100	 0.059712	 1560.580444	 1.065380
 0.011113	 0.060412	 1603.113281	 1.066401
 0.011125	 0.060645	 1617.567261	 1.066742
 0.011138	 0.060417	 1603.431641	 1.066409
 0.011150	 0.059735	 1561.919922	 1.065413
 0.011163	 0.058610	 1495.810059	 1.063772
 0.011175	 0.057058	 1409.123413	 1.061509
 0.011188	 0.055096	 1306.700806	 1.058652
 0.011200	 0.052745	 1193.735352	 1.055234
 0.011213	 0.050029	 1075.332275	 1.051293
 0.011225	 0.046975	 956.138733	 1.046868
 0.011238	 0.043610	 840.085449	 1.042006
 0.011250	 0.039967	 730.240234	 1.036753
 0.011263	 0.036077	 628.772400	 1.031159
 0.011275	 0.031975	 537.004150	 1.025277
 0.011288	 0.027697	 455.522278	 1.019159
 0.011300	 0.023278	 384.322601	 1.012860
 0.011313	 0.018755	 322.963226	 1.006433
 0.011325	 0.014166	 270.708740	 0.999933
 0.011338	 0.009548	 226.654495	 0.993413
 0.011350	 0.004938	 189.825394	 0.986925
 0.011363	 0.000372	 159.248993	 0.980520
 0.011375	-0.004116	 134.004837	 0.974246
 0.011388	-0.008490	 113.254204	 0.968150
 0.011400	-0.012719	 96.254784	 0.962275
 0.011413	-0.016771	 82.364426	 0.956662
 0.011425	-0.020617	 71.037689	 0.951348
 0.011438	-0.024232	 61.818150	 0.946369
 0.011450	-0.027589	 54.328518	 0.941755
 0.011463	-0.030669	 48.260162	 0.937534
 0.011475	-0.033451	 43.362919	 0.933728
 0.011488	-0.035919	 39.435741	 0.930358
 0.011500	-0.038060	 36.318501	 0.927440
 0.011513	-0.039863	 33.885014	 0.924986
 0.011525	-0.041321	 32.037189	 0.923004
 0.011538	-0.042430	 30.700342	 0.921499
 0.011550	-0.043187	 29.819393	 0.920471
 0.011563	-0.043594	 29.355984	 0.919919
 0.011575	-0.043656	 29.286242	 0.919835
 0.011588	-0.043379	 29.599201	 0.920210
 0.011600	-0.042775	 30.295664	 0.921030
 0.011613	-0.041854	 31.387552	 0.922280
 0.011625	-0.040632	 32.897484	 0.923940
 0.011638	-0.039127	 34.858662	 0.925988
 0.011650	-0.037356	 37.314865	 0.928399
 0.011663	-0.035342	 40.320477	 0.931145
 0.011675	-0.033107	 43.940456	 0.934198
 0.011688	-0.030674	 48.250050	 0.937526
 0.011700	-0.028070	 53.334110	 0.941096
 0.011713	-0.025319	 59.285873	 0.944874
 0.011725	-0.022449	 66.204865	 0.948823
 0.011738	-0.019487	 74.193848	 0.952908
 0.011750	-0.016460	 83.354561	 0.957092
 0.011763	-0.013395	 93.782143	 0.961336
 0.011775	-0.010320	 105.558075	 0.965605
 0.011788	-0.007260	 118.741943	 0.969863
 0.011800	-0.004241	 133.362091	 0.974072
 0.011813	-0.001287	 149.405731	 0.978199
 0.011825	 0.001577	 166.809265	 0.982210
 0.011838	 0.004332	 185.449631	 0.986074
 0.011850	 0.006955	 205.137924	 0.989761
 0.011863	 0.009429	 225.616135	 0.993245
 0.011875	 0.011737	 246.558487	 0.996501
 0.011888	 0.013864	 267.577637	 0.999506
 0.011900	 0.015798	 288.236389	 1.002241
 0.011913	 0.017527	 308.064758	 1.004692
 0.011925	 0.019045	 326.581299	 1.006844
 0.011938	 0.020344	 343.317352	 1.008689
 0.011950	 0.021422	 357.842529	 1.010220
 0.011963	 0.022276	 369.788666	 1.011434
 0.011975	 0.022906	 378.870697	 1.012331
 0.011988	 0.023317	 384.902039	 1.012916
 0.012000	 0.023512	 387.803253	 1.013194
 0.012013	 0.023499	 387.603821	 1.013175
 0.012025	 0.023286	 384.435913	 1.012871
 0.012038	 0.022883	 378.522827	 1.012297
 0.012050	 0.022302	 370.161865	 1.011471
 0.012063	 0.021557	 359.704285	 1.010412
 0.012075	 0.020662	 347.534454	 1.009140
 0.012088	 0.019633	 334.048981	 1.007679
 0.012100	 0.018486	 319.638489	 1.006052
 0.012113	 0.017239	 304.672180	 1.004284
 0.012125	 0.015910	 289.486206	 1.002401
 0.012138	 0.014516	 274.375732	 1.000428
 0.012150	 0.013076	 259.590881	 0.998392
 0.012163	 0.011608	 245.335556	 0.996318
 0.012175	 0.010129	 231.769135	 0.994231
 0.012188	 0.008656	 219.009750	 0.992156
 0.012200	 0.007207	 207.138916	 0.990116
 0.012213	 0.005798	 196.206940	 0.988134
 0.012225	 0.004442	 186.238251	 0.986229
 0.012238	 0.003154	 177.236832	 0.984421
 0.012250	 0.001946	 169.190964	 0.982726
 0.012263	 0.000829	 162.077621	 0.981161
 0.012275	-0.000187	 155.866043	 0.979739
 0.012288	-0.001094	 150.520737	 0.978469
 0.012300	-0.001886	 146.003830	 0.977361
 0.012313	-0.002559	 142.276764	 0.976421
 0.012325	-0.003108	 139.301514	 0.975654
 0.012338	-0.003533	 137.041351	 0.975060
 0.012350	-0.003835	 135.461197	 0.974639
 0.012363	-0.004015	 134.527542	 0.974388
 0.012375	-0.004076	 134.208221	 0.974301
 0.012388	-0.004025	 134.471771	 0.974372
 0.012400	-0.003868	 135.286713	 0.974592
 0.012413	-0.003613	 136.620590	 0.974948
 0.012425	-0.003270	 138.438873	 0.975428
 0.012438	-0.002848	 140.703751	 0.976017
 0.012450	-0.002359	 143.372955	 0.976700
 0.012463	-0.001816	 146.398605	 0.977459
 0.012475	-0.001232	 149.725998	 0.978276
 0.012488	-0.000620	 153.292908	 0.979133
 0.012500	 0.000007	 157.028824	 0.980009
 0.012513	 0.000632	 160.854889	 0.980886
 0.012525	 0.001244	 164.684158	 0.981743
 0.012538	 0.001828	 168.422501	 0.982560
 0.012550	 0.002370	 171.970184	 0.983320
 0.012563	 0.002857	 175.224060	 0.984004
 0.012575	 0.003277	 178.080444	 0.984594
 0.012588	 0.003619	 180.438477	 0.985074
 0.012600	 0.003873	 182.203964	 0.985429
 0.012613	 0.004028	 183.293259	 0.985647
 0.012625	 0.004076	 183.637161	 0.985715
 0.012638	 0.004012	 183.184387	 0.985625
 0.012650	 0.003830	 181.904404	 0.985369
 0.012663	 0.003526	 179.789352	 0.984942
 0.012675	 0.003098	 176.854797	 0.984342
 0.012688	 0.002546	 173.139404	 0.983567
 0.012700	 0.001871	 168.703308	 0.982621
 0.012713	 0.001076	 163.625427	 0.981508
 0.012725	 0.000167	 157.999924	 0.980234
 0.012738	-0.000851	 151.931946	 0.978808
 0.012750	-0.001970	 145.533096	 0.977244
 0.012763	-0.003180	 138.916977	 0.975553
 0.012775	-0.004469	 132.194946	 0.973753
 0.012788	-0.005826	 125.472435	 0.971860
 0.012800	-0.007237	 118.846077	 0.969894
 0.012813	-0.008687	 112.401558	 0.967876
 0.012825	-0.010159	 106.212334	 0.965829
 0.012838	-0.011638	 100.339226	 0.963774
 0.012850	-0.013106	 94.830620	 0.961737
 0.012863	-0.014546	 89.723305	 0.959742
 0.012875	-0.015938	 85.043732	 0.957813
 0.012888	-0.017266	 80.809578	 0.955976
 0.012900	-0.018511	 77.031487	 0.954256
 0.012913	-0.019655	 73.714844	 0.952676
 0.012925	-0.020682	 70.861580	 0.951259
 0.012938	-0.021574	 68.471870	 0.950030
 0.012950	-0.022316	 66.545792	 0.949007
 0.012963	-0.022893	 65.084778	 0.948212
 0.012975	-0.023292	 64.093086	 0.947663
 0.012988	-0.023501	 63.579124	 0.947374
 0.013000	-0.023510	 63.556774	 0.947362
 0.013013	-0.023311	 64.046669	 0.947637
 0.013025	-0.022896	 65.077538	 0.948208
 0.013038	-0.022260	 66.687630	 0.949084
 0.013050	-0.021402	 68.926178	 0.950267
 0.013063	-0.020320	 71.855087	 0.951759
 0.013075	-0.019016	 75.550644	 0.953559
 0.013088	-0.017494	 80.105423	 0.955662
 0.013100	-0.015760	 85.630234	 0.958061
 0.013113	-0.013822	 92.256058	 0.960745
 0.013125	-0.011691	 100.135826	 0.963701
 0.013138	-0.009379	 109.445854	 0.966913
 0.013150	-0.006902	 120.386589	 0.970361
 0.013163	-0.004276	 133.182297	 0.974023
 0.013175	-0.001519	 148.079208	 0.977874
 0.013188	 0.001348	 165.341339	 0.981888
 0.013200	 0.004303	 185.243484	 0.986033
 0.013213	 0.007323	 208.060455	 0.990279
 0.013225	 0.010383	 234.051804	 0.994591
 0.013238	 0.013459	 263.441406	 0.998933
 0.013250	 0.016523	 296.391937	 1.003269
 0.013263	 0.019549	 332.973785	 1.007560
 0.013275	 0.022509	 373.130554	 1.011767
 0.013288	 0.025377	 416.641754	 1.015850
 0.013300	 0.028125	 463.087433	 1.019771
 0.013313	 0.030727	 511.817596	 1.023489
 0.013325	 0.033155	 561.932861	 1.026967
 0.013338	 0.035386	 612.281128	 1.030167
 0.013350	 0.037396	 661.476074	 1.033053
 0.013363	 0.039161	 707.941223	 1.035592
 0.013375	 0.040661	 749.980957	 1.037751
 0.013388	 0.041876	 785.876343	 1.039503
 0.013400	 0.042790	 813.999817	 1.040822
 0.013413	 0.043388	 832.939331	 1.041685
 0.013425	 0.043658	 841.616638	 1.042074
 0.013438	 0.043589	 839.388489	 1.041974
 0.013450	 0.043174	 826.114990	 1.041376
 0.013463	 0.042410	 802.185486	 1.040274
 0.013475	 0.041295	 768.497131	 1.038665
 0.013488	 0.039830	 726.388245	 1.036555
 0.013500	 0.038019	 677.532776	 1.033950
 0.013513	 0.035871	 623.811279	 1.030863
 0.013525	 0.033397	 567.170715	 1.027313
 0.013538	 0.030608	 509.492432	 1.023320
 0.013550	 0.027523	 452.479736	 1.018910
 0.013563	 0.024159	 397.574463	 1.014115
 0.013575	 0.020540	 345.908417	 1.008967
 0.013588	 0.016689	 298.287231	 1.003504
 0.013600	 0.012633	 255.203094	 0.997766
 0.013613	 0.008401	 216.869370	 0.991797
 0.013625	 0.004024	 183.268311	 0.985642
 0.013638	-0.000465	 154.204819	 0.979349
 0.013650	-0.005033	 129.359741	 0.972966
 0.013663	-0.009644	 108.337875	 0.966545
 0.013675	-0.014262	 90.708122	 0.960135
 0.013688	-0.018850	 76.034729	 0.953788
 0.013700	-0.023370	 63.899677	 0.947554
 0.013713	-0.027787	 53.917194	 0.941484
 0.013725	-0.032062	 45.741905	 0.935627
 0.013738	-0.036160	 39.072014	 0.930030
 0.013750	-0.040045	 33.649063	 0.924739
 0.013763	-0.043683	 29.255415	 0.919798
 0.013775	-0.047041	 25.710518	 0.915249
 0.013788	-0.050089	 22.866589	 0.911130
 0.013800	-0.052798	 20.604296	 0.907477
 0.013813	-0.055141	 18.828695	 0.904323
 0.013825	-0.057094	 17.465685	 0.901698
 0.013838	-0.058638	 16.458990	 0.899626
 0.013850	-0.059753	 15.767813	 0.898130
 0.013863	-0.060426	 15.365082	 0.897229
 0.013875	-0.060645	 15.236367	 0.896936
 0.013888	-0.060402	 15.379425	 0.897262
 0.013900	-0.059693	 15.804450	 0.898211
 0.013913	-0.058518	 16.535070	 0.899787
 0.013925	-0.056880	 17.610193	 0.901985
 0.013938	-0.054787	 19.086880	 0.904800
 0.013950	-0.052248	 21.044437	 0.908218
 0.013963	-0.049279	 23.590019	 0.912223
 0.013975	-0.045898	 26.866104	 0.916796
 0.013988	-0.042127	 31.060230	 0.921910
 0.014000	-0.037989	 36.417515	 0.927536
 0.014013	-0.033515	 43.256390	 0.933641
 0.014025	-0.028734	 51.988010	 0.940185
 0.014038	-0.023682	 63.139561	 0.947126
 0.014050	-0.018393	 77.381241	 0.954419
 0.014063	-0.012908	 95.556076	 0.962012
 0.014075	-0.007267	 118.710609	 0.969853
 0.014088	-0.001512	 148.122833	 0.977885
 0.014100	 0.004314	 185.321793	 0.986049
 0.014113	 0.010165	 232.090530	 0.994282
 0.014125	 0.015996	 290.441650	 1.002522
 0.014138	 0.021762	 362.552307	 1.010703
 0.014150	 0.027417	 450.644775	 1.018760
 0.014163	 0.032917	 556.800049	 1.026625
 0.014175	 0.038217	 682.698669	 1.034234
 0.014188	 0.043274	 829.291260	 1.041520
 0.014200	 0.048048	 996.421387	 1.048421
 0.014213	 0.052498	 1182.437500	 1.054875
 0.014225	 0.056588	 1383.856934	 1.060824
 0.014238	 0.060282	 1595.156738	 1.066212
 0.014250	 0.063550	 1808.769775	 1.070989
 0.014263	 0.066362	 2015.357666	 1.075108
 0.014275	 0.068693	 2204.384033	 1.078529
 0.014288	 0.070521	 2364.972412	 1.081216
 0.014300	 0.071829	 2486.965332	 1.083140
 0.014313	 0.072602	 2562.038086	 1.084278
 0.014325	 0.072831	 2584.697021	 1.084615
 0.014338	 0.072510	 2552.984863	 1.084143
 0.014350	 0.071638	 2468.762451	 1.082859
 0.014363	 0.070217	 2337.507812	 1.080769
 0.014375	 0.068256	 2167.664795	 1.077888
 0.014388	 0.065765	 1969.656128	 1.074234
 0.014400	 0.062761	 1754.740112	 1.069835
 0.014413	 0.059264	 1533.885376	 1.064726
 0.014425	 0.055297	 1316.833496	 1.058945
 0.014438	 0.050888	 1111.452148	 1.052539
 0.014450	 0.046069	 923.415222	 1.045558
 0.014463	 0.040875	 756.189514	 1.038060
 0.014475	 0.035343	 611.258484	 1.030105
 0.014488	 0.029514	 488.495361	 1.021755
 0.014500	 0.023431	 386.598663	 1.013078
 0.014513	 0.017141	 303.517914	 1.004144
 0.014525	 0.010689	 236.822464	 0.995022
 0.014538	 0.004126	 183.988815	 0.985785
 0.014550	-0.002499	 142.601334	 0.976504
 0.014563	-0.009136	 110.475220	 0.967251
 0.014575	-0.015733	 85.716789	 0.958097
 0.014588	-0.022240	 66.738388	 0.949111
 0.014600	-0.028607	 52.243847	 0.940360
 0.014613	-0.034783	 41.197407	 0.931909
 0.014625	-0.040721	 32.785675	 0.923820
 0.014638	-0.046374	 26.378729	 0.916151
 0.014650	-0.051698	 21.494179	 0.908959
 0.014663	-0.056651	 17.765879	 0.902293
 0.014675	-0.061194	 14.917869	 0.896201
 0.014688	-0.065290	 12.743398	 0.890725
 0.014700	-0.068907	 11.088432	 0.885904
 0.014713	-0.072016	 9.838943	 0.881771
 0.014725	-0.074590	 8.911336	 0.878356
 0.014738	-0.076610	 8.245316	 0.875681
 0.014750	-0.078058	 7.798745	 0.873766
 0.014763	-0.078921	 7.544044	 0.872625
 0.014775	-0.079192	 7.465857	 0.872267
 0.014788	-0.078867	 7.559762	 0.872696
 0.014800	-0.077947	 7.831935	 0.873912
 0.014813	-0.076439	 8.299753	 0.875907
 0.014825	-0.074352	 8.993361	 0.878671
 0.014838	-0.071702	 9.958407	 0.882188
 0.014850	-0.068508	 11.260183	 0.886436
 0.014863	-0.064793	 12.989554	 0.891389
 0.014875	-0.060585	 15.271222	 0.897016
 0.014888	-0.055917	 18.274971	 0.903280
 0.014900	-0.050822	 22.230816	 0.910140
 0.014913	-0.045340	 27.448992	 0.917552
 0.014925	-0.039512	 34.345913	 0.925464
 0.014938	-0.033383	 43.477188	 0.933822
 0.014950	-0.026998	 55.578411	 0.942567
 0.014963	-0.020407	 71.613647	 0.951638
 0.014975	-0.013661	 92.830406	 0.960969
 0.014988	-0.006809	 120.817184	 0.970490
 0.015000	 0.000094	 157.556595	 0.980131
 0.015013	 0.006996	 205.462448	 0.989819
 0.015025	 0.013845	 267.383789	 0.999479
 0.015038	 0.020588	 346.553406	 1.009036
 0.015050	 0.027174	 446.454681	 1.018413
 0.015063	 0.033552	 570.580750	 1.027536
 0.015075	 0.039674	 722.066223	 1.036331
 0.015088	 0.045494	 903.188782	 1.044726
 0.015100	 0.050966	 1114.763916	 1.052651
 0.015113	 0.056049	 1355.491577	 1.060040
 0.015125	 0.060706	 1621.355713	 1.066831
 0.015138	 0.064900	 1905.202637	 1.072966
 0.015150	 0.068601	 2196.645508	 1.078395
 0.015163	 0.071781	 2482.412842	 1.083070
 0.015175	 0.074416	 2747.201172	 1.086951
 0.015188	 0.076487	 2975.009277	 1.090008
 0.015200	 0.077980	 3150.790283	 1.092212
 0.015213	 0.078884	 3262.211670	 1.093548
 0.015225	 0.079192	 3301.189209	 1.094005
 0.015238	 0.078905	 3264.948975	 1.093580
 0.015250	 0.078026	 3156.377686	 1.092281
 0.015263	 0.076563	 2983.624512	 1.090119
 0.015275	 0.074528	 2759.009277	 1.087116
 0.015288	 0.071938	 2497.471680	 1.083301
 0.015300	 0.068816	 2214.841797	 1.078710
 0.015313	 0.065185	 1926.210327	 1.073384
 0.015325	 0.061077	 1644.645874	 1.067372
 0.015338	 0.056522	 1380.378906	 1.060729
 0.015350	 0.051559	 1140.478516	 1.053511
 0.015363	 0.046225	 928.956970	 1.045783
 0.015375	 0.040563	 747.181946	 1.037611
 0.015388	 0.034618	 594.459473	 1.029065
 0.015400	 0.028436	 468.662476	 1.020215
 0.015413	 0.022066	 366.813141	 1.011135
 0.015425	 0.015555	 285.563477	 1.001899
 0.015438	 0.008956	 221.551422	 0.992579
 0.015450	 0.002319	 171.636551	 0.983250
 0.015463	-0.004305	 133.032867	 0.973982
 0.015475	-0.010866	 103.363510	 0.964846
 0.015488	-0.017314	 80.661819	 0.955911
 0.015500	-0.023599	 63.339695	 0.947239
 0.015513	-0.029676	 50.139603	 0.938895
 0.015525	-0.035497	 40.081284	 0.930934
 0.015538	-0.041020	 32.410076	 0.923413
 0.015550	-0.046205	 26.550682	 0.916380
 0.015563	-0.051013	 22.067869	 0.909882
 0.015575	-0.055411	 18.634329	 0.903960
 0.015588	-0.059365	 16.005108	 0.898651
 0.015600	-0.062849	 13.997719	 0.893986
 0.015613	-0.065840	 12.476942	 0.889992
 0.015625	-0.068316	 11.343469	 0.886691
 0.015638	-0.070263	 10.525119	 0.884101
 0.015650	-0.071668	 9.971197	 0.882232
 0.015663	-0.072526	 9.647775	 0.881094
 0.015675	-0.072832	 9.534870	 0.880688
 0.015688	-0.072588	 9.624681	 0.881011
 0.015700	-0.071800	 9.920787	 0.882057
 0.015713	-0.070478	 10.438266	 0.883814
 0.015725	-0.068636	 11.204657	 0.886265
 0.015738	-0.066292	 12.261848	 0.889389
 0.015750	-0.063467	 13.668996	 0.893160
 0.015763	-0.060188	 15.506580	 0.897548
 0.015775	-0.056482	 17.881910	 0.902520
 0.015788	-0.052382	 20.936190	 0.908037
 0.015800	-0.047923	 24.853481	 0.914056
 0.015813	-0.043141	 29.871727	 0.920533
 0.015825	-0.038076	 36.295864	 0.927418
 0.015838	-0.032770	 44.512981	 0.934658
 0.015850	-0.027266	 55.008739	 0.942199
 0.015863	-0.021607	 68.384125	 0.949984
 0.015875	-0.015839	 85.370247	 0.957951
 0.015888	-0.010006	 106.838295	 0.966041
 0.015900	-0.004156	 133.800034	 0.974191
 0.015913	 0.001668	 167.393570	 0.982337
 0.015925	 0.007421	 208.847519	 0.990417
 0.015938	 0.013059	 259.417450	 0.998367
 0.015950	 0.018539	 320.288727	 1.006127
 0.015963	 0.023822	 392.443970	 1.013634
 0.015975	 0.028867	 476.497833	 1.020831
 0.015988	 0.033640	 572.509705	 1.027662
 0.016000	 0.038106	 679.793518	 1.034074
 0.016013	 0.042233	 796.752441	 1.040019
 0.016025	 0.045995	 920.772217	 1.045451
 0.016038	 0.049365	 1048.206543	 1.050330
 0.016050	 0.052323	 1174.484009	 1.054620
 0.016063	 0.054849	 1294.348999	 1.058293
 0.016075	 0.056931	 1402.227051	 1.061323
 0.016088	 0.058556	 1492.686523	 1.063693
 0.016100	 0.059718	 1560.935791	 1.065389
 0.016113	 0.060415	 1603.295166	 1.066405
 0.016125	 0.060645	 1617.567261	 1.066742
 0.016138	 0.060414	 1603.251953	 1.066404
 0.016150	 0.059729	 1561.573730	 1.065404
 0.016163	 0.058602	 1495.318848	 1.063760
 0.016175	 0.057047	 1408.516479	 1.061493
 0.016188	 0.055082	 1306.010132	 1.058632
 0.016200	 0.052729	 1192.994507	 1.055211
 0.016213	 0.050011	 1074.572144	 1.051266
 0.016225	 0.046954	 955.387085	 1.046839
 0.016238	 0.043588	 839.364685	 1.041973
 0.016250	 0.039943	 729.566711	 1.036718
 0.016263	 0.036052	 628.157288	 1.031123
 0.016275	 0.031949	 536.453247	 1.025239
 0.016288	 0.027669	 455.037323	 1.019120
 0.016300	 0.023249	 383.902008	 1.012819
 0.016313	 0.018726	 322.603088	 1.006392
 0.016325	 0.014137	 270.403717	 0.999892
 0.016338	 0.009519	 226.398529	 0.993372
 0.016350	 0.004909	 189.612228	 0.986884
 0.016363	 0.000343	 159.072571	 0.980480
 0.016375	-0.004144	 133.859543	 0.974207
 0.016388	-0.008518	 113.134987	 0.968112
 0.016400	-0.012745	 96.157265	 0.962238
 0.016413	-0.016796	 82.284828	 0.956627
 0.016425	-0.020641	 70.972847	 0.951316
 0.016438	-0.024254	 61.765419	 0.946339
 0.016450	-0.027610	 54.285732	 0.941727
 0.016463	-0.030688	 48.225559	 0.937508
 0.016475	-0.033468	 43.335075	 0.933705
 0.016488	-0.035934	 39.413506	 0.930338
 0.016500	-0.038073	 36.300983	 0.927423
 0.016513	-0.039874	 33.871502	 0.924972
 0.016525	-0.041329	 32.027145	 0.922993
 0.016538	-0.042435	 30.693350	 0.921491
 0.016550	-0.043190	 29.815159	 0.920466
 0.016563	-0.043595	 29.354315	 0.919917
 0.016575	-0.043655	 29.287029	 0.919836
 0.016588	-0.043376	 29.602407	 0.920214
 0.016600	-0.042770	 30.301344	 0.921037
 0.016613	-0.041847	 31.395805	 0.922290
 0.016625	-0.040624	 32.908485	 0.923952
 0.016638	-0.039116	 34.872665	 0.926002
 0.016650	-0.037344	 37.332176	 0.928415
 0.016663	-0.035329	 40.341484	 0.931164
 0.016675	-0.033092	 43.965595	 0.934219
 0.016688	-0.030658	 48.279835	 0.937548
 0.016700	-0.028053	 53.369114	 0.941120
 0.016713	-0.025301	 59.326706	 0.944898
 0.016725	-0.022430	 66.252174	 0.948849
 0.016738	-0.019468	 74.248283	 0.952934
 0.016750	-0.016441	 83.416771	 0.957118
 0.016763	-0.013376	 93.852684	 0.961363
 0.016775	-0.010300	 105.637413	 0.965633
 0.016788	-0.007241	 118.830360	 0.969889
 0.016800	-0.004222	 133.459656	 0.974098
 0.016813	-0.001269	 149.512207	 0.978224
 0.016825	 0.001595	 166.924057	 0.982235
 0.016838	 0.004349	 185.571747	 0.986098
 0.016850	 0.006971	 205.265945	 0.989784
 0.016863	 0.009444	 225.748215	 0.993267
 0.016875	 0.011751	 246.692352	 0.996520
 0.016888	 0.013877	 267.710632	 0.999524
 0.016900	 0.015809	 288.365601	 1.002258
 0.016913	 0.017538	 308.187134	 1.004707
 0.016925	 0.019054	 326.693787	 1.006857
 0.016938	 0.020352	 343.417114	 1.008700
 0.016950	 0.021428	 357.926971	 1.010229
 0.016963	 0.022280	 369.855713	 1.011441
 0.016975	 0.022910	 378.918823	 1.012336
 0.016988	 0.023319	 384.930389	 1.012918
 0.017000	 0.023513	 387.811707	 1.013194
 0.017013	 0.023498	 387.592834	 1.013174
 0.017025	 0.023284	 384.406708	 1.012868
 0.017038	 0.022879	 378.477051	 1.012293
 0.017050	 0.022298	 370.101593	 1.011465
 0.017063	 0.021551	 359.631897	 1.010404
 0.017075	 0.020656	 347.452423	 1.009131
 0.017088	 0.019626	 333.959839	 1.007669
 0.017100	 0.018479	 319.544678	 1.006041
 0.017113	 0.017231	 304.575958	 1.004272
 0.017125	 0.015901	 289.389587	 1.002388
 0.017138	 0.014507	 274.280457	 1.000415
 0.017150	 0.013067	 259.498352	 0.998379
 0.017163	 0.011598	 245.246979	 0.996305
 0.017175	 0.010119	 231.685349	 0.994218
 0.017188	 0.008647	 218.931381	 0.992143
 0.017200	 0.007198	 207.066406	 0.990104
 0.017213	 0.005789	 196.140488	 0.988121
 0.017225	 0.004434	 186.177963	 0.986217
 0.017238	 0.003146	 177.182663	 0.984409
 0.017250	 0.001939	 169.142822	 0.982716
 0.017263	 0.000823	 162.035309	 0.981152
 0.017275	-0.000193	 155.829361	 0.979730
 0.017288	-0.001099	 150.489441	 0.978461
 0.017300	-0.001891	 145.977676	 0.977355
 0.017313	-0.002562	 142.255508	 0.976416
 0.017325	-0.003111	 139.284912	 0.975649
 0.017338	-0.003536	 137.029190	 0.975056
 0.017350	-0.003836	 135.453247	 0.974636
 0.017363	-0.004015	 134.523605	 0.974386
 0.017375	-0.004076	 134.208084	 0.974301
 0.017388	-0.004025	 134.475235	 0.974373
 0.017400	-0.003867	 135.293594	 0.974594
 0.017413	-0.003611	 136.630661	 0.974951
 0.017425	-0.003267	 138.451904	 0.975431
 0.017438	-0.002845	 140.719482	 0.976021
 0.017450	-0.002356	 143.391129	 0.976705
 0.017463	-0.001812	 146.418869	 0.977464
 0.017475	-0.001228	 149.748001	 0.978282
 0.017488	-0.000616	 153.316208	 0.979138
 0.017500	 0.000010	 157.052963	 0.980015
 0.017513	 0.000636	 160.879318	 0.980891
 0.017525	 0.001248	 164.708313	 0.981748
 0.017538	 0.001831	 168.445770	 0.982565
 0.017550	 0.002373	 171.991913	 0.983325
 0.017563	 0.002860	 175.243591	 0.984008
 0.017575	 0.003280	 178.097107	 0.984597
 0.017588	 0.003621	 180.451675	 0.985076
 0.017600	 0.003874	 182.213104	 0.985431
 0.017613	 0.004028	 183.297867	 0.985648
 0.017625	 0.004076	 183.636841	 0.985715
 0.017638	 0.004011	 183.178879	 0.985624
 0.017650	 0.003828	 181.893600	 0.985367
 0.017663	 0.003523	 179.773254	 0.984939
 0.017675	 0.003095	 176.833588	 0.984337
 0.017688	 0.002542	 173.113403	 0.983562
 0.017700	 0.001866	 168.672958	 0.982615
 0.017713	 0.001071	 163.591293	 0.981500
 0.017725	 0.000161	 157.962631	 0.980225
 0.017738	-0.000858	 151.892181	 0.978799
 0.017750	-0.001978	 145.491592	 0.977233
 0.017763	-0.003188	 138.874451	 0.975542
 0.017775	-0.004478	 132.152084	 0.973741
 0.017788	-0.005835	 125.429901	 0.971848
 0.017800	-0.007246	 118.804443	 0.969882
 0.017813	-0.008696	 112.361328	 0.967864
 0.017825	-0.010169	 106.173935	 0.965816
 0.017838	-0.011648	 100.303001	 0.963761
 0.017850	-0.013116	 94.796844	 0.961724
 0.017863	-0.014555	 89.692177	 0.959729
 0.017875	-0.015947	 85.015381	 0.957801
 0.017888	-0.017274	 80.784111	 0.955965
 0.017900	-0.018519	 77.008934	 0.954245
 0.017913	-0.019662	 73.695236	 0.952666
 0.017925	-0.020688	 70.844917	 0.951251
 0.017938	-0.021579	 68.458160	 0.950022
 0.017950	-0.022320	 66.535027	 0.949001
 0.017963	-0.022896	 65.076981	 0.948208
 0.017975	-0.023294	 64.088295	 0.947660
 0.017988	-0.023502	 63.577412	 0.947373
 0.018000	-0.023510	 63.558243	 0.947363
 0.018013	-0.023309	 64.051476	 0.947639
 0.018025	-0.022892	 65.085899	 0.948213
 0.018038	-0.022255	 66.699814	 0.949090
 0.018050	-0.021396	 68.942551	 0.950275
 0.018063	-0.020312	 71.876076	 0.951769
 0.018075	-0.019007	 75.576782	 0.953571
 0.018088	-0.017483	 80.137360	 0.955676
 0.018100	-0.015748	 85.668739	 0.958077
 0.018113	-0.013809	 92.302032	 0.960763
 0.018125	-0.011677	 100.190308	 0.963721
 0.018138	-0.009364	 109.510040	 0.966934
 0.018150	-0.006886	 120.461838	 0.970383
 0.018163	-0.004259	 133.270111	 0.974047
 0.018175	-0.001501	 148.181213	 0.977899
 0.018188	 0.001366	 165.459244	 0.981914
 0.018200	 0.004322	 185.379074	 0.986060
 0.018213	 0.007342	 208.215439	 0.990306
 0.018225	 0.010403	 234.227722	 0.994618
 0.018238	 0.013478	 263.639557	 0.998961
 0.018250	 0.016542	 296.613037	 1.003296
 0.018263	 0.019568	 333.217987	 1.007587
 0.018275	 0.022528	 373.396973	 1.011793
 0.018288	 0.025395	 416.928406	 1.015876
 0.018300	 0.028142	 463.390900	 1.019795
 0.018313	 0.030743	 512.132935	 1.023512
 0.018325	 0.033170	 562.253601	 1.026988
 0.018338	 0.035400	 612.599121	 1.030186
 0.018350	 0.037408	 661.781921	 1.033070
 0.018363	 0.039171	 708.224365	 1.035607
 0.018375	 0.040669	 750.230408	 1.037764
 0.018388	 0.041883	 786.081299	 1.039513
 0.018400	 0.042795	 814.150635	 1.040829
 0.018413	 0.043391	 833.027893	 1.041689
 0.018425	 0.043658	 841.637268	 1.042075
 0.018438	 0.043587	 839.338806	 1.041972
 0.018450	 0.043171	 825.995789	 1.041371
 0.018463	 0.042404	 802.000916	 1.040265
 0.018475	 0.041286	 768.254395	 1.038653
 0.018488	 0.039819	 726.096985	 1.036540
 0.018500	 0.038007	 677.204590	 1.033932
 0.018513	 0.035857	 623.458252	 1.030842
 0.018525	 0.033380	 566.805298	 1.027289
 0.018538	 0.030589	 509.126160	 1.023293
 0.018550	 0.027502	 452.122559	 1.018881
 0.018563	 0.024137	 397.234680	 1.014083
 0.018575	 0.020516	 345.592163	 1.008933
 0.018588	 0.016664	 297.998535	 1.003468
 0.018600	 0.012607	 254.944244	 0.997729
 0.018613	 0.008374	 216.640900	 0.991758
 0.018625	 0.003996	 183.069458	 0.985602
 0.018638	-0.000494	 154.033905	 0.979308
 0.018650	-0.005062	 129.214447	 0.972926
 0.018663	-0.009673	 108.215523	 0.966504
 0.018675	-0.014291	 90.605942	 0.960095
 0.018688	-0.018879	 75.949982	 0.953748
 0.018700	-0.023399	 63.829788	 0.947515
 0.018713	-0.027815	 53.859848	 0.941446
 0.018725	-0.032089	 45.695038	 0.935590
 0.018738	-0.036186	 39.033844	 0.929995
 0.018750	-0.040069	 33.618080	 0.924706
 0.018763	-0.043705	 29.230364	 0.919768
 0.018775	-0.047062	 25.690359	 0.915221
 0.018788	-0.050107	 22.850479	 0.911105
 0.018800	-0.052814	 20.591555	 0.907455
 0.018813	-0.055154	 18.818794	 0.904305
 0.018825	-0.057106	 17.458208	 0.901683
 0.018838	-0.058646	 16.453632	 0.899615
 0.018850	-0.059759	 15.764363	 0.898123
 0.018863	-0.060429	 15.363407	 0.897225
 0.018875	-0.060645	 15.236415	 0.896936
 0.018888	-0.060399	 15.381219	 0.897266
 0.018900	-0.059687	 15.808099	 0.898219
 0.018913	-0.058509	 16.540768	 0.899799
 0.018925	-0.056868	 17.618242	 0.902001
 0.018938	-0.054772	 19.097710	 0.904819
 0.018950	-0.052231	 21.058636	 0.908241
 0.018963	-0.049259	 23.608374	 0.912251
 0.018975	-0.045875	 26.889650	 0.916827
 0.018988	-0.042101	 31.090330	 0.921944
 0.019000	-0.037962	 36.455940	 0.927574
 0.019013	-0.033485	 43.305435	 0.933681
 0.019025	-0.028703	 52.050644	 0.940228
 0.019038	-0.023649	 63.219563	 0.947171
 0.019050	-0.018359	 77.483391	 0.954466
 0.019063	-0.012873	 95.686348	 0.962061
 0.019075	-0.007230	 118.876373	 0.969903
 0.019088	-0.001475	 148.333008	 0.977937
 0.019100	 0.004351	 185.586929	 0.986101
 0.019113	 0.010202	 232.422729	 0.994335
 0.019125	 0.016033	 290.854340	 1.002574
 0.019138	 0.021798	 363.059631	 1.010755
 0.019150	 0.027453	 451.260651	 1.018810
 0.019163	 0.032951	 557.536743	 1.026674
 0.019175	 0.038250	 683.564880	 1.034281
 0.019188	 0.043305	 830.289978	 1.041565
 0.019200	 0.048077	 997.547119	 1.048464
 0.019213	 0.052525	 1183.674438	 1.054915
 0.019225	 0.056612	 1385.176392	 1.060860
 0.019238	 0.060304	 1596.516724	 1.066244
 0.019250	 0.063569	 1810.116333	 1.071017
 0.019263	 0.066378	 2016.626953	 1.075132
 0.019275	 0.068706	 2205.506104	 1.078548
 0.019288	 0.070531	 2365.880127	 1.081231
 0.019300	 0.071835	 2487.598389	 1.083149
 0.019313	 0.072605	 2562.351807	 1.084283
 0.019325	 0.072830	 2584.667236	 1.084615
 0.019338	 0.072506	 2552.611084	 1.084137
 0.019350	 0.071630	 2468.068604	 1.082848
 0.019363	 0.070206	 2336.540039	 1.080753
 0.019375	 0.068242	 2166.483154	 1.077867
 0.019388	 0.065748	 1968.331299	 1.074208
 0.019400	 0.062741	 1753.343262	 1.069805
 0.019413	 0.059240	 1532.483643	 1.064691
 0.019425	 0.055270	 1315.483521	 1.058906
 0.019438	 0.050859	 1110.196899	 1.052496
 0.019450	 0.046038	 922.283508	 1.045512
 0.019463	 0.040841	 755.196899	 1.038011
 0.019475	 0.035307	 610.408630	 1.030053
 0.019488	 0.029476	 487.783386	 1.021701
 0.019500	 0.023392	 386.013397	 1.013022
 0.019513	 0.017100	 303.044739	 1.004086
 0.019525	 0.010648	 236.445374	 0.994964
 0.019538	 0.004084	 183.691956	 0.985726
 0.019550	-0.002542	 142.369965	 0.976445
 0.019563	-0.009178	 110.296356	 0.967193
 0.019575	-0.015775	 85.579369	 0.958039
 0.019588	-0.022281	 66.633286	 0.949054
 0.019600	-0.028647	 52.163685	 0.940305
 0.019613	-0.034821	 41.136353	 0.931856
 0.019625	-0.040758	 32.739182	 0.923770
 0.019638	-0.046409	 26.343304	 0.916104
 0.019650	-0.051731	 21.467157	 0.908915
 0.019663	-0.056682	 17.745239	 0.902252
 0.019675	-0.061222	 14.902102	 0.896164
 0.019688	-0.065315	 12.731375	 0.890692
 0.019700	-0.068929	 11.079309	 0.885876
 0.019713	-0.072034	 9.832104	 0.881747
 0.019725	-0.074605	 8.906329	 0.878336
 0.019738	-0.076621	 8.241819	 0.875666
 0.019750	-0.078065	 7.796541	 0.873756
 0.019763	-0.078925	 7.543000	 0.872620
 0.019775	-0.079192	 7.465910	 0.872267
 0.019788	-0.078863	 7.560916	 0.872702
 0.019800	-0.077939	 7.834267	 0.873922
 0.019813	-0.076427	 8.303412	 0.875922
 0.019825	-0.074337	 8.998581	 0.878691
 0.019838	-0.071683	 9.965541	 0.882213
 0.019850	-0.068486	 11.269716	 0.886465
 0.019863	-0.064768	 13.002165	 0.891423
 0.019875	-0.060557	 15.287832	 0.897054
 0.019888	-0.055886	 18.296835	 0.903322
 0.019900	-0.050789	 22.259632	 0.910186
 0.019913	-0.045304	 27.487034	 0.917601
 0.019925	-0.039474	 34.396236	 0.925515
 0.019938	-0.033343	 43.543865	 0.933876
 0.019950	-0.026957	 55.666786	 0.942624
 0.019963	-0.020365	 71.730698	 0.951697
 0.019975	-0.013617	 92.985100	 0.961029
 0.019988	-0.006766	 121.020821	 0.970551
