TBJ_JFET  
Vin = 0.04*sen(2*PI*1000.0*t) + 0.04*sen(2*PI*1200.0*t)
Is = 1.00e-11  Idss = 2.00
Vt = 0.026     Vp   = -2.00
Tensiones de polarizaci√≥n
Vbe = 0.775
Vgs = -0.600

t [s]   	Vin [V] 	Ic [mA] 	Id [mA] 	
 0.000000	 0.000000	 88.169075	 0.980000
 0.000025	 0.013753	 149.635635	 0.999348
 0.000050	 0.027086	 249.887711	 1.018287
 0.000075	 0.039593	 404.257050	 1.036214
 0.000100	 0.050893	 624.336365	 1.052546
 0.000125	 0.060645	 908.461792	 1.066742
 0.000150	 0.068554	 1231.438110	 1.078325
 0.000175	 0.074384	 1540.962158	 1.086903
 0.000200	 0.077963	 1768.426270	 1.092188
 0.000225	 0.079192	 1854.011963	 1.094005
 0.000250	 0.078042	 1773.805664	 1.092304
 0.000275	 0.074560	 1551.446411	 1.087163
 0.000300	 0.068863	 1246.167603	 1.078779
 0.000325	 0.061137	 925.831604	 1.067461
 0.000350	 0.051631	 642.304871	 1.053616
 0.000375	 0.040645	 420.957062	 1.037729
 0.000400	 0.028525	 264.111145	 1.020342
 0.000425	 0.015648	 160.952911	 1.002030
 0.000450	 0.002413	 96.744888	 0.983382
 0.000475	-0.010774	 58.258526	 0.964975
 0.000500	-0.023511	 35.693985	 0.947361
 0.000525	-0.035416	 22.580975	 0.931045
 0.000550	-0.046134	 14.952649	 0.916477
 0.000575	-0.055350	 10.489676	 0.904041
 0.000600	-0.062803	 7.875574	 0.894048
 0.000625	-0.068284	 6.378560	 0.886734
 0.000650	-0.071652	 5.603580	 0.882254
 0.000675	-0.072831	 5.355113	 0.880688
 0.000700	-0.071815	 5.568492	 0.882037
 0.000725	-0.068666	 6.285476	 0.886225
 0.000750	-0.063512	 7.663768	 0.893101
 0.000775	-0.056539	 10.021003	 0.902444
 0.000800	-0.047990	 13.922184	 0.913965
 0.000825	-0.038152	 20.325293	 0.927315
 0.000850	-0.027348	 30.797205	 0.942087
 0.000875	-0.015924	 47.789158	 0.957833
 0.000900	-0.004242	 74.897385	 0.974071
 0.000925	 0.007337	 116.915329	 0.990299
 0.000950	 0.018460	 179.332092	 1.006014
 0.000975	 0.028795	 266.864685	 1.020727
 0.001000	 0.038042	 380.852142	 1.033982
 0.001025	 0.045942	 516.072327	 1.045374
 0.001050	 0.052282	 658.579895	 1.054561
 0.001075	 0.056903	 786.683655	 1.061283
 0.001100	 0.059704	 876.187622	 1.065369
 0.001125	 0.060645	 908.463196	 1.066742
 0.001150	 0.059743	 877.476501	 1.065424
 0.001175	 0.057073	 791.864746	 1.061532
 0.001200	 0.052767	 671.003906	 1.055267
 0.001225	 0.047003	 537.574951	 1.046909
 0.001250	 0.040000	 410.646667	 1.036801
 0.001275	 0.032013	 302.026794	 1.025330
 0.001300	 0.023318	 216.176361	 1.012917
 0.001325	 0.014208	 152.278030	 0.999992
 0.001350	 0.004979	 106.779999	 0.986984
 0.001375	-0.004076	 75.376358	 0.974302
 0.001400	-0.012681	 54.137188	 0.962327
 0.001425	-0.020583	 39.948673	 0.951395
 0.001450	-0.027560	 30.546783	 0.941796
 0.001475	-0.033427	 24.376257	 0.933761
 0.001500	-0.038042	 20.411617	 0.927465
 0.001525	-0.041309	 18.001080	 0.923020
 0.001550	-0.043181	 16.750771	 0.920479
 0.001575	-0.043657	 16.447218	 0.919834
 0.001600	-0.042782	 17.010088	 0.921021
 0.001625	-0.040645	 18.466892	 0.923923
 0.001650	-0.037374	 20.942505	 0.928374
 0.001675	-0.033129	 24.656994	 0.934168
 0.001700	-0.028095	 29.924332	 0.941061
 0.001725	-0.022477	 37.142361	 0.948785
 0.001750	-0.016489	 46.761280	 0.957051
 0.001775	-0.010349	 59.216541	 0.965564
 0.001800	-0.004270	 74.816124	 0.974031
 0.001825	 0.001550	 93.585770	 0.982171
 0.001850	 0.006930	 115.100258	 0.989726
 0.001875	 0.011715	 138.357559	 0.996470
 0.001900	 0.015780	 161.768402	 1.002216
 0.001925	 0.019031	 183.317856	 1.006825
 0.001950	 0.021412	 200.899002	 1.010206
 0.001975	 0.022901	 212.740479	 1.012324
 0.002000	 0.023511	 217.791977	 1.013192
 0.002025	 0.023289	 215.934021	 1.012875
 0.002050	 0.022308	 207.945023	 1.011481
 0.002075	 0.020672	 195.256500	 1.009154
 0.002100	 0.018498	 179.600296	 1.006069
 0.002125	 0.015924	 162.668930	 1.002420
 0.002150	 0.013091	 145.875641	 0.998413
 0.002175	 0.010144	 130.242737	 0.994253
 0.002200	 0.007222	 116.399895	 0.990137
 0.002225	 0.004456	 104.650703	 0.986248
 0.002250	 0.001958	 95.065659	 0.982743
 0.002275	-0.000177	 87.571724	 0.979753
 0.002300	-0.001879	 82.023308	 0.977372
 0.002325	-0.003103	 78.250381	 0.975661
 0.002350	-0.003832	 76.085617	 0.974642
 0.002375	-0.004076	 75.374680	 0.974301
 0.002400	-0.003871	 75.973846	 0.974589
 0.002425	-0.003274	 77.738388	 0.975422
 0.002450	-0.002364	 80.504623	 0.976692
 0.002475	-0.001238	 84.068970	 0.978267
 0.002500	-0.000000	 88.168312	 0.980000
 0.002525	 0.001238	 92.467606	 0.981734
 0.002550	 0.002364	 96.561836	 0.983313
 0.002575	 0.003273	 99.998253	 0.984588
 0.002600	 0.003870	 102.321281	 0.985426
 0.002625	 0.004076	 103.135254	 0.985715
 0.002650	 0.003832	 102.172241	 0.985373
 0.002675	 0.003103	 99.346367	 0.984349
 0.002700	 0.001879	 94.777252	 0.982633
 0.002725	 0.000177	 88.772873	 0.980248
 0.002750	-0.001957	 81.775444	 0.977262
 0.002775	-0.004455	 74.285896	 0.973773
 0.002800	-0.007221	 66.787811	 0.969916
 0.002825	-0.010143	 59.689346	 0.965852
 0.002850	-0.013090	 53.292648	 0.961760
 0.002875	-0.015923	 47.790810	 0.957835
 0.002900	-0.018498	 43.285252	 0.954275
 0.002925	-0.020671	 39.814259	 0.951275
 0.002950	-0.022308	 37.384541	 0.949018
 0.002975	-0.023288	 36.001053	 0.947667
 0.003000	-0.023511	 35.693539	 0.947360
 0.003025	-0.022902	 36.540642	 0.948200
 0.003050	-0.021413	 38.693958	 0.950251
 0.003075	-0.019032	 42.404396	 0.953536
 0.003100	-0.015781	 48.052593	 0.958031
 0.003125	-0.011717	 56.182747	 0.963665
 0.003150	-0.006932	 67.534485	 0.970319
 0.003175	-0.001552	 83.059433	 0.977828
 0.003200	 0.004268	 103.896622	 0.985984
 0.003225	 0.010347	 131.266113	 0.994540
 0.003250	 0.016487	 166.230057	 1.003218
 0.003275	 0.022475	 209.280121	 1.011717
 0.003300	 0.028093	 259.762177	 1.019725
 0.003325	 0.033127	 315.256744	 1.026927
 0.003350	 0.037373	 371.177094	 1.033021
 0.003375	 0.040644	 420.942139	 1.037728
 0.003400	 0.042781	 457.000702	 1.040809
 0.003425	 0.043657	 472.649078	 1.042072
 0.003450	 0.043182	 464.092743	 1.041386
 0.003475	 0.041310	 431.866455	 1.038688
 0.003500	 0.038043	 380.871826	 1.033984
 0.003525	 0.033429	 318.931274	 1.027359
 0.003550	 0.027562	 254.510574	 1.018967
 0.003575	 0.020586	 194.614456	 1.009032
 0.003600	 0.012684	 143.610672	 0.997838
 0.003625	 0.004079	 103.145607	 0.985719
 0.003650	-0.004976	 72.811150	 0.973046
 0.003675	-0.014204	 51.056461	 0.960215
 0.003700	-0.023315	 35.964840	 0.947631
 0.003725	-0.032010	 25.741716	 0.935699
 0.003750	-0.039998	 18.932571	 0.924803
 0.003775	-0.047001	 14.462126	 0.915303
 0.003800	-0.052766	 11.586120	 0.907520
 0.003825	-0.057072	 9.817541	 0.901727
 0.003850	-0.059742	 8.859473	 0.898146
 0.003875	-0.060645	 8.557072	 0.896936
 0.003900	-0.059705	 8.872054	 0.898195
 0.003925	-0.056904	 9.881209	 0.901953
 0.003950	-0.052284	 11.802961	 0.908170
 0.003975	-0.045944	 15.061877	 0.916733
 0.004000	-0.038045	 20.409130	 0.927461
 0.004025	-0.028798	 29.126076	 0.940097
 0.004050	-0.018463	 43.341999	 0.954322
 0.004075	-0.007341	 66.480034	 0.969749
 0.004100	 0.004237	 103.775276	 0.985941
 0.004125	 0.015920	 162.641418	 1.002414
 0.004150	 0.027343	 252.378006	 1.018655
 0.004175	 0.038148	 382.411224	 1.034135
 0.004200	 0.047987	 558.298889	 1.048333
 0.004225	 0.056536	 775.660767	 1.060748
 0.004250	 0.063509	 1014.264343	 1.070930
 0.004275	 0.068665	 1236.709106	 1.078488
 0.004300	 0.071815	 1395.987061	 1.083119
 0.004325	 0.072831	 1451.658447	 1.084616
 0.004350	 0.071653	 1387.336792	 1.082881
 0.004375	 0.068286	 1218.819214	 1.077932
 0.004400	 0.062805	 987.173401	 1.069900
 0.004425	 0.055354	 741.184448	 1.059027
 0.004450	 0.046138	 519.973999	 1.045657
 0.004475	 0.035420	 344.323395	 1.030216
 0.004500	 0.023516	 217.831940	 1.013199
 0.004525	 0.010779	 133.463272	 0.995148
 0.004550	-0.002408	 80.370216	 0.976632
 0.004575	-0.015643	 48.308498	 0.958222
 0.004600	-0.028520	 29.439610	 0.940479
 0.004625	-0.040640	 18.470335	 0.923929
 0.004650	-0.051627	 12.104935	 0.909055
 0.004675	-0.061134	 8.397704	 0.896281
 0.004700	-0.068860	 6.238826	 0.885967
 0.004725	-0.074558	 5.011042	 0.878398
 0.004750	-0.078041	 4.382711	 0.873787
 0.004775	-0.079192	 4.192951	 0.872267
 0.004800	-0.077964	 4.395707	 0.873889
 0.004825	-0.074386	 5.044374	 0.878627
 0.004850	-0.068557	 6.312059	 0.886371
 0.004875	-0.060649	 8.555842	 0.896931
 0.004900	-0.050898	 12.449113	 0.910038
 0.004925	-0.039598	 19.226013	 0.925347
 0.004950	-0.027091	 31.102425	 0.942439
 0.004975	-0.013759	 51.939674	 0.960833
 0.005000	-0.000006	 88.148727	 0.979992
 0.005025	 0.013747	 149.601486	 0.999340
 0.005050	 0.027080	 249.833115	 1.018279
 0.005075	 0.039587	 404.175323	 1.036206
 0.005100	 0.050889	 624.224365	 1.052539
 0.005125	 0.060641	 908.324585	 1.066736
 0.005150	 0.068551	 1231.293091	 1.078321
 0.005175	 0.074381	 1540.837280	 1.086900
 0.005200	 0.077962	 1768.352783	 1.092186
 0.005225	 0.079192	 1854.010376	 1.094005
 0.005250	 0.078043	 1773.877319	 1.092306
 0.005275	 0.074562	 1551.570435	 1.087166
 0.005300	 0.068866	 1246.314087	 1.078784
 0.005325	 0.061141	 925.971558	 1.067467
 0.005350	 0.051636	 642.420654	 1.053623
 0.005375	 0.040650	 421.042816	 1.037737
 0.005400	 0.028531	 264.169556	 1.020350
 0.005425	 0.015654	 160.990173	 1.002038
 0.005450	 0.002419	 96.767609	 0.983390
 0.005475	-0.010768	 58.271980	 0.964983
 0.005500	-0.023505	 35.701839	 0.947369
 0.005525	-0.035411	 22.585564	 0.931052
 0.005550	-0.046129	 14.955338	 0.916484
 0.005575	-0.055347	 10.491262	 0.904046
 0.005600	-0.062800	 7.876501	 0.894052
 0.005625	-0.068282	 6.379076	 0.886736
 0.005650	-0.071651	 5.603815	 0.882255
 0.005675	-0.072831	 5.355120	 0.880688
 0.005700	-0.071816	 5.568277	 0.882036
 0.005725	-0.068668	 6.284987	 0.886222
 0.005750	-0.063515	 7.662896	 0.893097
 0.005775	-0.056543	 10.019535	 0.902439
 0.005800	-0.047995	 13.919759	 0.913959
 0.005825	-0.038157	 20.321297	 0.927308
 0.005850	-0.027353	 30.790659	 0.942080
 0.005875	-0.015930	 47.778549	 0.957825
 0.005900	-0.004247	 74.880569	 0.974063
 0.005925	 0.007331	 116.889595	 0.990291
 0.005950	 0.018454	 179.294632	 1.006006
 0.005975	 0.028790	 266.813568	 1.020720
 0.006000	 0.038038	 380.787903	 1.033976
 0.006025	 0.045938	 516.000061	 1.045369
 0.006050	 0.052279	 658.509033	 1.054557
 0.006075	 0.056901	 786.626282	 1.061280
 0.006100	 0.059703	 876.155457	 1.065367
 0.006125	 0.060645	 908.462952	 1.066742
 0.006150	 0.059744	 877.507385	 1.065426
 0.006175	 0.057075	 791.919128	 1.061534
 0.006200	 0.052770	 671.070435	 1.055270
 0.006225	 0.047006	 537.642517	 1.046914
 0.006250	 0.040004	 410.707214	 1.036806
 0.006275	 0.032017	 302.076355	 1.025336
 0.006300	 0.023322	 216.214233	 1.012923
 0.006325	 0.014212	 152.305496	 0.999998
 0.006350	 0.004984	 106.799194	 0.986990
 0.006375	-0.004071	 75.389442	 0.974308
 0.006400	-0.012677	 54.145973	 0.962333
 0.006425	-0.020579	 39.954517	 0.951401
 0.006450	-0.027557	 30.550640	 0.941800
 0.006475	-0.033424	 24.378769	 0.933765
 0.006500	-0.038040	 20.413197	 0.927468
 0.006525	-0.041308	 18.001987	 0.923022
 0.006550	-0.043181	 16.751154	 0.920480
 0.006575	-0.043657	 16.447151	 0.919834
 0.006600	-0.042782	 17.009581	 0.921020
 0.006625	-0.040647	 18.465904	 0.923921
 0.006650	-0.037376	 20.940954	 0.928372
 0.006675	-0.033131	 24.654739	 0.934165
 0.006700	-0.028098	 29.921194	 0.941058
 0.006725	-0.022480	 37.138119	 0.948781
 0.006750	-0.016492	 46.755699	 0.957047
 0.006775	-0.010353	 59.209423	 0.965560
 0.006800	-0.004273	 74.807373	 0.974027
 0.006825	 0.001547	 93.575462	 0.982167
 0.006850	 0.006928	 115.088760	 0.989723
 0.006875	 0.011713	 138.345535	 0.996467
 0.006900	 0.015778	 161.756775	 1.002213
 0.006925	 0.019030	 183.307724	 1.006823
 0.006950	 0.021411	 200.891403	 1.010205
 0.006975	 0.022901	 212.736115	 1.012323
 0.007000	 0.023511	 217.791183	 1.013192
 0.007025	 0.023289	 215.936615	 1.012876
 0.007050	 0.022309	 207.950424	 1.011482
 0.007075	 0.020672	 195.263870	 1.009155
 0.007100	 0.018500	 179.608704	 1.006071
 0.007125	 0.015925	 162.677612	 1.002422
 0.007150	 0.013092	 145.883957	 0.998415
 0.007175	 0.010145	 130.250275	 0.994255
 0.007200	 0.007224	 116.406418	 0.990139
 0.007225	 0.004457	 104.656128	 0.986250
 0.007250	 0.001959	 95.069992	 0.982745
 0.007275	-0.000176	 87.575027	 0.979754
 0.007300	-0.001878	 82.025665	 0.977373
 0.007325	-0.003102	 78.251877	 0.975661
 0.007350	-0.003832	 76.086334	 0.974642
 0.007375	-0.004076	 75.374695	 0.974301
 0.007400	-0.003871	 75.973236	 0.974588
 0.007425	-0.003274	 77.737221	 0.975422
 0.007450	-0.002365	 80.502998	 0.976692
 0.007475	-0.001239	 84.067001	 0.978267
 0.007500	-0.000001	 88.166145	 0.979999
 0.007525	 0.001237	 92.465439	 0.981733
 0.007550	 0.002364	 96.559883	 0.983312
 0.007575	 0.003273	 99.996750	 0.984587
 0.007600	 0.003870	 102.320450	 0.985426
 0.007625	 0.004076	 103.135277	 0.985715
 0.007650	 0.003833	 102.173203	 0.985373
 0.007675	 0.003104	 99.348267	 0.984350
 0.007700	 0.001880	 94.779976	 0.982634
 0.007725	 0.000178	 88.776222	 0.980250
 0.007750	-0.001956	 81.779175	 0.977263
 0.007775	-0.004453	 74.289742	 0.973775
 0.007800	-0.007220	 66.791550	 0.969919
 0.007825	-0.010141	 59.692673	 0.965854
 0.007850	-0.013089	 53.295464	 0.961762
 0.007875	-0.015922	 47.793079	 0.957836
 0.007900	-0.018497	 43.286983	 0.954276
 0.007925	-0.020670	 39.815487	 0.951276
 0.007950	-0.022307	 37.385296	 0.949018
 0.007975	-0.023288	 36.001377	 0.947668
 0.008000	-0.023512	 35.693447	 0.947360
 0.008025	-0.022902	 36.540142	 0.948200
 0.008050	-0.021414	 38.693027	 0.950250
 0.008075	-0.019033	 42.402992	 0.953535
 0.008100	-0.015782	 48.050663	 0.958030
 0.008125	-0.011718	 56.180187	 0.963663
 0.008150	-0.006933	 67.531197	 0.970317
 0.008175	-0.001553	 83.055313	 0.977826
 0.008200	 0.004266	 103.891586	 0.985982
 0.008225	 0.010346	 131.260162	 0.994538
 0.008250	 0.016486	 166.223297	 1.003216
 0.008275	 0.022474	 209.272842	 1.011716
 0.008300	 0.028093	 259.754883	 1.019724
 0.008325	 0.033127	 315.250061	 1.026926
 0.008350	 0.037373	 371.171783	 1.033020
 0.008375	 0.040644	 420.938599	 1.037728
 0.008400	 0.042781	 456.999054	 1.040809
 0.008425	 0.043657	 472.648956	 1.042072
 0.008450	 0.043182	 464.093262	 1.041386
 0.008475	 0.041310	 431.866699	 1.038688
 0.008500	 0.038043	 380.871124	 1.033984
 0.008525	 0.033429	 318.929260	 1.027359
 0.008550	 0.027562	 254.507401	 1.018967
 0.008575	 0.020585	 194.610611	 1.009031
 0.008600	 0.012683	 143.606674	 0.997837
 0.008625	 0.004078	 103.141876	 0.985718
 0.008650	-0.004977	 72.807938	 0.973044
 0.008675	-0.014206	 51.053867	 0.960213
 0.008700	-0.023316	 35.962837	 0.947629
 0.008725	-0.032011	 25.740219	 0.935697
 0.008750	-0.039999	 18.931479	 0.924801
 0.008775	-0.047002	 14.461349	 0.915302
 0.008800	-0.052767	 11.585586	 0.907519
 0.008825	-0.057073	 9.817202	 0.901726
 0.008850	-0.059742	 8.859306	 0.898145
 0.008875	-0.060645	 8.557073	 0.896936
 0.008900	-0.059705	 8.872254	 0.898196
 0.008925	-0.056903	 9.881675	 0.901955
 0.008950	-0.052282	 11.803832	 0.908172
 0.008975	-0.045942	 15.063396	 0.916737
 0.009000	-0.038042	 20.411736	 0.927465
 0.009025	-0.028794	 29.130529	 0.940103
 0.009050	-0.018459	 43.349594	 0.954328
 0.009075	-0.007336	 66.492912	 0.969756
 0.009100	 0.004243	 103.796738	 0.985949
 0.009125	 0.015925	 162.676193	 1.002422
 0.009150	 0.027349	 252.431931	 1.018663
 0.009175	 0.038154	 382.489960	 1.034143
 0.009200	 0.047992	 558.405090	 1.048340
 0.009225	 0.056540	 775.789490	 1.060755
 0.009250	 0.063513	 1014.400330	 1.070935
 0.009275	 0.068667	 1236.826416	 1.078492
 0.009300	 0.071816	 1396.055420	 1.083121
 0.009325	 0.072831	 1451.656006	 1.084616
 0.009350	 0.071652	 1387.258057	 1.082879
 0.009375	 0.068283	 1218.680542	 1.077927
 0.009400	 0.062801	 987.004822	 1.069893
 0.009425	 0.055348	 741.016907	 1.059019
 0.009450	 0.046130	 519.829651	 1.045647
 0.009475	 0.035412	 344.212128	 1.030204
 0.009500	 0.023507	 217.753326	 1.013186
 0.009525	 0.010769	 133.411346	 0.995134
 0.009550	-0.002418	 80.337585	 0.976617
 0.009575	-0.015654	 48.288658	 0.958208
 0.009600	-0.028530	 29.427771	 0.940465
 0.009625	-0.040650	 18.463314	 0.923916
 0.009650	-0.051636	 12.100764	 0.909043
 0.009675	-0.061141	 8.395220	 0.896271
 0.009700	-0.068866	 6.237359	 0.885959
 0.009725	-0.074562	 5.010218	 0.878393
 0.009750	-0.078044	 4.382341	 0.873784
 0.009775	-0.079192	 4.192957	 0.872267
 0.009800	-0.077962	 4.396107	 0.873892
 0.009825	-0.074381	 5.045290	 0.878633
 0.009850	-0.068550	 6.313767	 0.886380
 0.009875	-0.060639	 8.558871	 0.896943
 0.009900	-0.050887	 12.454463	 0.910053
 0.009925	-0.039585	 19.235521	 0.925365
 0.009950	-0.027077	 31.119410	 0.942459
 0.009975	-0.013743	 51.969917	 0.960854
 0.010000	 0.000010	 88.201721	 0.980013
 0.010025	 0.013762	 149.691513	 0.999362
 0.010050	 0.027095	 249.978851	 1.018300
 0.010075	 0.039602	 404.396027	 1.036226
 0.010100	 0.050901	 624.530518	 1.052557
 0.010125	 0.060652	 908.704041	 1.066752
 0.010150	 0.068559	 1231.699219	 1.078333
 0.010175	 0.074387	 1541.190552	 1.086909
 0.010200	 0.077965	 1768.562622	 1.092191
 0.010225	 0.079192	 1854.014160	 1.094005
 0.010250	 0.078040	 1773.667847	 1.092301
 0.010275	 0.074556	 1551.202759	 1.087157
 0.010300	 0.068857	 1245.876221	 1.078770
 0.010325	 0.061129	 925.548157	 1.067450
 0.010350	 0.051621	 642.066772	 1.053602
 0.010375	 0.040634	 420.777771	 1.037713
 0.010400	 0.028513	 263.987274	 1.020324
 0.010425	 0.015635	 160.872635	 1.002012
 0.010450	 0.002400	 96.695198	 0.983363
 0.010475	-0.010787	 58.228657	 0.964957
 0.010500	-0.023524	 35.676296	 0.947343
 0.010525	-0.035428	 22.570543	 0.931029
 0.010550	-0.046144	 14.946467	 0.916463
 0.010575	-0.055360	 10.485996	 0.904029
 0.010600	-0.062810	 7.873398	 0.894039
 0.010625	-0.068289	 6.377336	 0.886727
 0.010650	-0.071655	 5.603022	 0.882251
 0.010675	-0.072831	 5.355094	 0.880688
 0.010700	-0.071813	 5.569019	 0.882040
 0.010725	-0.068661	 6.286675	 0.886231
 0.010750	-0.063504	 7.665934	 0.893111
 0.010775	-0.056529	 10.024674	 0.902457
 0.010800	-0.047979	 13.928306	 0.913981
 0.010825	-0.038139	 20.335455	 0.927332
 0.010850	-0.027333	 30.814007	 0.942107
 0.010875	-0.015909	 47.816601	 0.957854
 0.010900	-0.004226	 74.941231	 0.974092
 0.010925	 0.007352	 116.982956	 0.990320
 0.010950	 0.018474	 179.431351	 1.006034
 0.010975	 0.028808	 267.001099	 1.020746
 0.011000	 0.038054	 381.024536	 1.033999
 0.011025	 0.045952	 516.268921	 1.045388
 0.011050	 0.052289	 658.775635	 1.054572
 0.011075	 0.056908	 786.843872	 1.061291
 0.011100	 0.059707	 876.278503	 1.065372
 0.011125	 0.060645	 908.463745	 1.066742
 0.011150	 0.059740	 877.386475	 1.065420
 0.011175	 0.057068	 791.704468	 1.061524
 0.011200	 0.052760	 670.805603	 1.055256
 0.011225	 0.046993	 537.371155	 1.046895
 0.011250	 0.039989	 410.461700	 1.036784
 0.011275	 0.032000	 301.873627	 1.025311
 0.011300	 0.023304	 216.058029	 1.012897
 0.011325	 0.014193	 152.191193	 0.999971
 0.011350	 0.004964	 106.718590	 0.986962
 0.011375	-0.004090	 75.334015	 0.974282
 0.011400	-0.012695	 54.108448	 0.962308
 0.011425	-0.020596	 39.929352	 0.951378
 0.011450	-0.027571	 30.533892	 0.941781
 0.011475	-0.033436	 24.367775	 0.933749
 0.011500	-0.038049	 20.406223	 0.927455
 0.011525	-0.041314	 17.997948	 0.923014
 0.011550	-0.043183	 16.749434	 0.920476
 0.011575	-0.043656	 16.447460	 0.919834
 0.011600	-0.042779	 17.011900	 0.921025
 0.011625	-0.040640	 18.470442	 0.923930
 0.011650	-0.037367	 20.948153	 0.928384
 0.011675	-0.033120	 24.665283	 0.934180
 0.011700	-0.028085	 29.935987	 0.941075
 0.011725	-0.022466	 37.158272	 0.948800
 0.011750	-0.016477	 46.782410	 0.957067
 0.011775	-0.010337	 59.243755	 0.965581
 0.011800	-0.004258	 74.849922	 0.974048
 0.011825	 0.001561	 93.625916	 0.982187
 0.011850	 0.006940	 115.145477	 0.989741
 0.011875	 0.011724	 138.405289	 0.996483
 0.011900	 0.015787	 161.814926	 1.002227
 0.011925	 0.019037	 183.358765	 1.006833
 0.011950	 0.021416	 200.930023	 1.010212
 0.011975	 0.022903	 212.758347	 1.012327
 0.012000	 0.023512	 217.795197	 1.013193
 0.012025	 0.023287	 215.923096	 1.012873
 0.012050	 0.022306	 207.922195	 1.011477
 0.012075	 0.020667	 195.225128	 1.009148
 0.012100	 0.018493	 179.564072	 1.006061
 0.012125	 0.015918	 162.631287	 1.002412
 0.012150	 0.013084	 145.839294	 0.998404
 0.012175	 0.010137	 130.209534	 0.994243
 0.012200	 0.007216	 116.370903	 0.990128
 0.012225	 0.004450	 104.626396	 0.986239
 0.012250	 0.001953	 95.046082	 0.982736
 0.012275	-0.000181	 87.556686	 0.979746
 0.012300	-0.001882	 82.012497	 0.977367
 0.012325	-0.003105	 78.243462	 0.975658
 0.012350	-0.003833	 76.082268	 0.974640
 0.012375	-0.004076	 75.374603	 0.974301
 0.012400	-0.003870	 75.976761	 0.974590
 0.012425	-0.003272	 77.743965	 0.975425
 0.012450	-0.002362	 80.512466	 0.976696
 0.012475	-0.001235	 84.078545	 0.978272
 0.012500	 0.000003	 88.178894	 0.980004
 0.012525	 0.001241	 92.478294	 0.981738
 0.012550	 0.002367	 96.571526	 0.983316
 0.012575	 0.003275	 100.005753	 0.984591
 0.012600	 0.003871	 102.325432	 0.985427
 0.012625	 0.004076	 103.135139	 0.985715
 0.012650	 0.003831	 102.167305	 0.985371
 0.012675	 0.003101	 99.336594	 0.984346
 0.012700	 0.001875	 94.763161	 0.982627
 0.012725	 0.000172	 88.755409	 0.980241
 0.012750	-0.001963	 81.755875	 0.977253
 0.012775	-0.004462	 74.265533	 0.973763
 0.012800	-0.007229	 66.767883	 0.969906
 0.012825	-0.010151	 59.670837	 0.965841
 0.012850	-0.013098	 53.276253	 0.961749
 0.012875	-0.015931	 47.776955	 0.957824
 0.012900	-0.018504	 43.274151	 0.954265
 0.012925	-0.020676	 39.806000	 0.951267
 0.012950	-0.022312	 37.379162	 0.949013
 0.012975	-0.023290	 35.998634	 0.947665
 0.013000	-0.023511	 35.694260	 0.947361
 0.013025	-0.022899	 36.544868	 0.948204
 0.013050	-0.021407	 38.702301	 0.950259
 0.013075	-0.019024	 42.417812	 0.953548
 0.013100	-0.015770	 48.072491	 0.958046
 0.013125	-0.011704	 56.211082	 0.963683
 0.013150	-0.006917	 67.573875	 0.970340
 0.013175	-0.001535	 83.113167	 0.977852
 0.013200	 0.004286	 103.968498	 0.986009
 0.013225	 0.010366	 131.359970	 0.994566
 0.013250	 0.016506	 166.348785	 1.003244
 0.013275	 0.022493	 209.424072	 1.011743
 0.013300	 0.028110	 259.927185	 1.019749
 0.013325	 0.033142	 315.432343	 1.026948
 0.013350	 0.037385	 371.345673	 1.033038
 0.013375	 0.040653	 421.080597	 1.037740
 0.013400	 0.042786	 457.085114	 1.040816
 0.013425	 0.043657	 472.661224	 1.042073
 0.013450	 0.043178	 464.026062	 1.041381
 0.013475	 0.041302	 431.729156	 1.038676
 0.013500	 0.038031	 380.684814	 1.033966
 0.013525	 0.033412	 318.721680	 1.027334
 0.013550	 0.027541	 254.304382	 1.018937
 0.013575	 0.020561	 194.430725	 1.008997
 0.013600	 0.012657	 143.459381	 0.997799
 0.013625	 0.004050	 103.028687	 0.985678
 0.013650	-0.005007	 72.725212	 0.973003
 0.013675	-0.014235	 50.995674	 0.960172
 0.013700	-0.023345	 35.923031	 0.947590
 0.013725	-0.032038	 25.713520	 0.935660
 0.013750	-0.040023	 18.913830	 0.924768
 0.013775	-0.047023	 14.449864	 0.915274
 0.013800	-0.052783	 11.578325	 0.907497
 0.013825	-0.057084	 9.812940	 0.901711
 0.013850	-0.059748	 8.857332	 0.898137
 0.013875	-0.060645	 8.557088	 0.896936
 0.013900	-0.059698	 8.874312	 0.898204
 0.013925	-0.056891	 9.886232	 0.901971
 0.013950	-0.052264	 11.811873	 0.908196
 0.013975	-0.045919	 15.076734	 0.916768
 0.014000	-0.038014	 20.433502	 0.927503
 0.014025	-0.028763	 29.166012	 0.940146
 0.014050	-0.018424	 43.407463	 0.954376
 0.014075	-0.007299	 66.586823	 0.969807
 0.014100	 0.004280	 103.946968	 0.986001
 0.014125	 0.015962	 162.910095	 1.002475
 0.014150	 0.027385	 252.781097	 1.018714
 0.014175	 0.038187	 382.981262	 1.034191
 0.014200	 0.048021	 559.043884	 1.048383
 0.014225	 0.056565	 776.538696	 1.060791
 0.014250	 0.063532	 1015.165710	 1.070963
 0.014275	 0.068681	 1237.465210	 1.078511
 0.014300	 0.071823	 1396.417114	 1.083131
 0.014325	 0.072831	 1451.641479	 1.084616
 0.014350	 0.071644	 1386.866211	 1.082868
 0.014375	 0.068269	 1218.010254	 1.077906
 0.014400	 0.062780	 986.211487	 1.069863
 0.014425	 0.055321	 740.249329	 1.058980
 0.014450	 0.046098	 519.185730	 1.045600
 0.014475	 0.035375	 343.728302	 1.030151
 0.014500	 0.023467	 217.419952	 1.013129
 0.014525	 0.010727	 133.196472	 0.995075
 0.014550	-0.002461	 80.205719	 0.976557
 0.014575	-0.015696	 48.210327	 0.958149
 0.014600	-0.028571	 29.382072	 0.940409
 0.014625	-0.040688	 18.436810	 0.923865
 0.014650	-0.051669	 12.085360	 0.908998
 0.014675	-0.061169	 8.386232	 0.896234
 0.014700	-0.068888	 6.232158	 0.885930
 0.014725	-0.074577	 5.007361	 0.878373
 0.014750	-0.078051	 4.381080	 0.873775
 0.014775	-0.079192	 4.192980	 0.872267
 0.014800	-0.077954	 4.397424	 0.873903
 0.014825	-0.074366	 5.048244	 0.878653
 0.014850	-0.068527	 6.319165	 0.886410
 0.014875	-0.060611	 8.568279	 0.896982
 0.014900	-0.050853	 12.470780	 0.910099
 0.014925	-0.039546	 19.264021	 0.925417
 0.014950	-0.027035	 31.169455	 0.942516
 0.014975	-0.013700	 52.057514	 0.960914
 0.015000	 0.000054	 88.352684	 0.980076
 0.015025	 0.013806	 149.943787	 0.999424
 0.015050	 0.027137	 250.380737	 1.018360
 0.015075	 0.039640	 404.994965	 1.036282
 0.015100	 0.050935	 625.348145	 1.052607
 0.015125	 0.060680	 909.701782	 1.066794
 0.015150	 0.068581	 1232.750854	 1.078366
 0.015175	 0.074403	 1542.091309	 1.086931
 0.015200	 0.077973	 1769.089722	 1.092202
 0.015225	 0.079192	 1854.021606	 1.094005
 0.015250	 0.078033	 1773.155151	 1.092290
 0.015275	 0.074541	 1550.316162	 1.087135
 0.015300	 0.068835	 1244.835571	 1.078738
 0.015325	 0.061101	 924.556335	 1.067409
 0.015350	 0.051588	 641.248718	 1.053554
 0.015375	 0.040597	 420.173492	 1.037659
 0.015400	 0.028472	 263.577179	 1.020267
 0.015425	 0.015593	 160.611649	 1.001952
 0.015450	 0.002357	 96.536484	 0.983303
 0.015475	-0.010829	 58.134892	 0.964898
 0.015500	-0.023564	 35.621693	 0.947288
 0.015525	-0.035464	 22.538832	 0.930979
 0.015550	-0.046177	 14.927967	 0.916419
 0.015575	-0.055387	 10.475143	 0.903993
 0.015600	-0.062831	 7.867079	 0.894011
 0.015625	-0.068303	 6.373837	 0.886708
 0.015650	-0.071662	 5.601445	 0.882241
 0.015675	-0.072832	 5.355048	 0.880688
 0.015700	-0.071806	 5.570470	 0.882049
 0.015725	-0.068648	 6.289932	 0.886249
 0.015750	-0.063485	 7.671727	 0.893137
 0.015775	-0.056504	 10.034365	 0.902490
 0.015800	-0.047949	 13.944252	 0.914021
 0.015825	-0.038106	 20.361588	 0.927378
 0.015850	-0.027298	 30.856638	 0.942156
 0.015875	-0.015872	 47.885361	 0.957906
 0.015900	-0.004189	 75.049690	 0.974145
 0.015925	 0.007389	 117.148155	 0.990372
 0.015950	 0.018509	 179.670792	 1.006083
 0.015975	 0.028840	 267.326172	 1.020791
 0.016000	 0.038081	 381.430603	 1.034039
 0.016025	 0.045975	 516.725525	 1.045421
 0.016050	 0.052307	 659.223816	 1.054598
 0.016075	 0.056920	 787.205811	 1.061308
 0.016100	 0.059713	 876.480957	 1.065381
 0.016125	 0.060645	 908.464355	 1.066742
 0.016150	 0.059734	 877.190125	 1.065412
 0.016175	 0.057057	 791.359924	 1.061507
 0.016200	 0.052743	 670.384644	 1.055232
 0.016225	 0.046973	 536.944031	 1.046865
 0.016250	 0.039964	 410.078857	 1.036749
 0.016275	 0.031973	 301.560394	 1.025273
 0.016300	 0.023275	 215.818832	 1.012856
 0.016325	 0.014163	 152.017700	 0.999929
 0.016350	 0.004935	 106.597343	 0.986921
 0.016375	-0.004119	 75.251366	 0.974242
 0.016400	-0.012722	 54.052975	 0.962271
 0.016425	-0.020620	 39.892464	 0.951345
 0.016450	-0.027592	 30.509554	 0.941752
 0.016475	-0.033453	 24.351933	 0.933726
 0.016500	-0.038062	 20.396255	 0.927438
 0.016525	-0.041322	 17.992229	 0.923003
 0.016550	-0.043187	 16.747019	 0.920471
 0.016575	-0.043656	 16.447899	 0.919835
 0.016600	-0.042774	 17.015114	 0.921031
 0.016625	-0.040631	 18.476686	 0.923941
 0.016650	-0.037355	 20.957979	 0.928400
 0.016675	-0.033105	 24.679550	 0.934201
 0.016700	-0.028068	 29.955858	 0.941099
 0.016725	-0.022447	 37.185131	 0.948826
 0.016750	-0.016458	 46.817730	 0.957094
 0.016775	-0.010318	 59.288803	 0.965608
 0.016800	-0.004239	 74.905319	 0.974075
 0.016825	 0.001579	 93.691109	 0.982212
 0.016850	 0.006957	 115.218208	 0.989764
 0.016875	 0.011738	 138.481354	 0.996503
 0.016900	 0.015799	 161.888351	 1.002243
 0.016925	 0.019046	 183.422745	 1.006846
 0.016950	 0.021422	 200.978073	 1.010221
 0.016975	 0.022907	 212.785767	 1.012332
 0.017000	 0.023512	 217.800064	 1.013194
 0.017025	 0.023285	 215.906555	 1.012871
 0.017050	 0.022301	 207.887985	 1.011471
 0.017075	 0.020661	 195.178574	 1.009139
 0.017100	 0.018485	 179.510803	 1.006050
 0.017125	 0.015909	 162.576385	 1.002399
 0.017150	 0.013075	 145.786713	 0.998391
 0.017175	 0.010128	 130.161911	 0.994230
 0.017200	 0.007206	 116.329681	 0.990115
 0.017225	 0.004441	 104.592125	 0.986227
 0.017250	 0.001945	 95.018707	 0.982725
 0.017275	-0.000187	 87.535820	 0.979738
 0.017300	-0.001887	 81.997620	 0.977360
 0.017325	-0.003108	 78.234016	 0.975653
 0.017350	-0.003835	 76.077744	 0.974638
 0.017375	-0.004076	 75.374519	 0.974301
 0.017400	-0.003868	 75.980659	 0.974592
 0.017425	-0.003269	 77.751366	 0.975428
 0.017450	-0.002359	 80.522781	 0.976701
 0.017475	-0.001231	 84.091034	 0.978277
 0.017500	 0.000007	 88.192604	 0.980010
 0.017525	 0.001245	 92.492027	 0.981743
 0.017550	 0.002370	 96.583878	 0.983321
 0.017575	 0.003278	 100.015236	 0.984594
 0.017600	 0.003873	 102.330643	 0.985429
 0.017625	 0.004076	 103.134972	 0.985715
 0.017650	 0.003830	 102.161179	 0.985369
 0.017675	 0.003098	 99.324562	 0.984341
 0.017700	 0.001871	 94.745926	 0.982620
 0.017725	 0.000166	 88.734222	 0.980233
 0.017750	-0.001971	 81.732292	 0.977243
 0.017775	-0.004470	 74.241188	 0.973751
 0.017800	-0.007238	 66.744225	 0.969893
 0.017825	-0.010160	 59.649014	 0.965827
 0.017850	-0.013107	 53.257057	 0.961736
 0.017875	-0.015939	 47.760838	 0.957812
 0.017900	-0.018512	 43.261326	 0.954255
 0.017925	-0.020682	 39.796520	 0.951259
 0.017950	-0.022316	 37.373035	 0.949007
 0.017975	-0.023292	 35.995903	 0.947662
 0.018000	-0.023510	 35.695087	 0.947362
 0.018025	-0.022895	 36.549606	 0.948209
 0.018050	-0.021401	 38.711590	 0.950268
 0.018075	-0.019015	 42.432648	 0.953560
 0.018100	-0.015758	 48.094345	 0.958062
 0.018125	-0.011689	 56.242012	 0.963703
 0.018150	-0.006900	 67.616592	 0.970363
 0.018175	-0.001517	 83.171074	 0.977877
 0.018200	 0.004305	 104.045479	 0.986036
 0.018225	 0.010386	 131.459869	 0.994594
 0.018250	 0.016525	 166.474350	 1.003272
 0.018275	 0.022512	 209.575378	 1.011770
 0.018300	 0.028127	 260.099579	 1.019773
 0.018325	 0.033157	 315.614563	 1.026969
 0.018350	 0.037397	 371.519501	 1.033055
 0.018375	 0.040662	 421.222504	 1.037753
 0.018400	 0.042791	 457.170959	 1.040823
 0.018425	 0.043658	 472.673187	 1.042074
 0.018450	 0.043174	 463.958496	 1.041376
 0.018475	 0.041294	 431.591370	 1.038664
 0.018500	 0.038018	 380.498352	 1.033948
 0.018525	 0.033395	 318.514099	 1.027310
 0.018550	 0.027520	 254.101395	 1.018907
 0.018575	 0.020537	 194.250931	 1.008963
 0.018600	 0.012630	 143.312210	 0.997762
 0.018625	 0.004021	 102.915604	 0.985637
 0.018650	-0.005036	 72.642570	 0.972962
 0.018675	-0.014265	 50.937550	 0.960131
 0.018700	-0.023374	 35.883282	 0.947550
 0.018725	-0.032065	 25.686857	 0.935623
 0.018750	-0.040048	 18.896208	 0.924735
 0.018775	-0.047043	 14.438396	 0.915246
 0.018800	-0.052799	 11.571078	 0.907475
 0.018825	-0.057096	 9.808682	 0.901696
 0.018850	-0.059754	 8.855367	 0.898130
 0.018875	-0.060645	 8.557109	 0.896936
 0.018900	-0.059692	 8.876379	 0.898212
 0.018925	-0.056879	 9.890798	 0.901987
 0.018950	-0.052246	 11.819929	 0.908220
 0.018975	-0.045896	 15.090092	 0.916799
 0.019000	-0.037986	 20.455303	 0.927541
 0.019025	-0.028731	 29.201551	 0.940189
 0.019050	-0.018390	 43.465424	 0.954424
 0.019075	-0.007263	 66.680885	 0.969858
 0.019100	 0.004318	 104.097420	 0.986054
 0.019125	 0.016000	 163.144302	 1.002528
 0.019150	 0.027421	 253.130661	 1.018765
 0.019175	 0.038220	 383.473022	 1.034239
 0.019200	 0.048051	 559.683167	 1.048426
 0.019225	 0.056590	 777.288147	 1.060828
 0.019250	 0.063552	 1015.931091	 1.070992
 0.019275	 0.068694	 1238.103638	 1.078531
 0.019300	 0.071829	 1396.778198	 1.083141
 0.019325	 0.072831	 1451.625610	 1.084615
 0.019350	 0.071637	 1386.473145	 1.082857
 0.019375	 0.068254	 1217.339600	 1.077885
 0.019400	 0.062759	 985.417969	 1.069832
 0.019425	 0.055294	 739.481934	 1.058940
 0.019450	 0.046066	 518.542358	 1.045553
 0.019475	 0.035339	 343.244995	 1.030099
 0.019500	 0.023427	 217.087006	 1.013072
 0.019525	 0.010685	 132.981934	 0.995016
 0.019550	-0.002504	 80.074066	 0.976498
 0.019575	-0.015738	 48.132130	 0.958091
 0.019600	-0.028611	 29.336454	 0.940354
 0.019625	-0.040725	 18.410353	 0.923814
 0.019650	-0.051702	 12.069981	 0.908954
 0.019675	-0.061197	 8.377258	 0.896197
 0.019700	-0.068910	 6.226965	 0.885901
 0.019725	-0.074592	 5.004510	 0.878353
 0.019750	-0.078058	 4.379824	 0.873765
 0.019775	-0.079192	 4.193006	 0.872267
 0.019800	-0.077946	 4.398745	 0.873913
 0.019825	-0.074350	 5.051207	 0.878673
 0.019850	-0.068505	 6.324573	 0.886439
 0.019875	-0.060582	 8.577702	 0.897020
 0.019900	-0.050819	 12.487126	 0.910145
 0.019925	-0.039508	 19.292574	 0.925469
 0.019950	-0.026993	 31.219587	 0.942573
 0.019975	-0.013656	 52.145271	 0.960975
