TBJ_JFET  
Vin = 0.04*sen(2*PI*1000.0*t) + 0.04*sen(2*PI*1200.0*t)
Is = 1.00e-11  Idss = 2.00
Vt = 0.026     Vp   = -2.00
Tensiones de polarizaci√≥n
Vbe = 0.810
Vgs = -0.600

t [s]   	Vin [V] 	Ic [mA] 	Id [mA] 	
 0.000000	 0.000000	 338.800049	 0.980000
 0.000012	 0.006903	 441.818085	 0.989688
 0.000025	 0.013753	 574.992554	 0.999348
 0.000037	 0.020497	 745.289917	 1.008906
 0.000050	 0.027086	 960.222961	 1.018287
 0.000062	 0.033467	 1227.334106	 1.027414
 0.000075	 0.039593	 1553.405273	 1.036214
 0.000087	 0.045416	 1943.385254	 1.044614
 0.000100	 0.050893	 2399.086182	 1.052546
 0.000112	 0.055982	 2917.774658	 1.059942
 0.000125	 0.060645	 3490.871338	 1.066742
 0.000137	 0.064846	 4103.035156	 1.072887
 0.000150	 0.068554	 4731.945801	 1.078325
 0.000162	 0.071741	 5349.036133	 1.083010
 0.000175	 0.074384	 5921.327148	 1.086903
 0.000187	 0.076463	 6414.284180	 1.089971
 0.000200	 0.077963	 6795.384277	 1.092188
 0.000212	 0.078875	 7037.905762	 1.093536
 0.000225	 0.079192	 7124.259277	 1.094005
 0.000237	 0.078913	 7048.287598	 1.093592
 0.000250	 0.078042	 6816.057129	 1.092304
 0.000262	 0.076587	 6445.005371	 1.090154
 0.000275	 0.074560	 5961.615234	 1.087163
 0.000287	 0.071978	 5398.076660	 1.083360
 0.000300	 0.068863	 4788.545898	 1.078779
 0.000312	 0.065240	 4165.633301	 1.073463
 0.000325	 0.061137	 3557.615234	 1.067461
 0.000337	 0.056589	 2986.664307	 1.060826
 0.000350	 0.051631	 2468.130127	 1.053616
 0.000362	 0.046302	 2010.759033	 1.045895
 0.000375	 0.040645	 1617.574463	 1.037729
 0.000388	 0.034704	 1287.132202	 1.029188
 0.000400	 0.028525	 1014.875977	 1.020342
 0.000413	 0.022157	 794.398071	 1.011265
 0.000425	 0.015648	 618.478760	 1.002030
 0.000438	 0.009050	 479.858917	 0.992711
 0.000450	 0.002413	 371.752319	 0.983381
 0.000463	-0.004212	 288.134766	 0.974113
 0.000475	-0.010774	 223.864319	 0.964975
 0.000488	-0.017223	 174.684662	 0.956036
 0.000500	-0.023511	 137.157730	 0.947361
 0.000513	-0.029591	 108.560516	 0.939011
 0.000525	-0.035416	 86.769798	 0.931045
 0.000538	-0.040944	 70.150826	 0.923517
 0.000550	-0.046134	 57.457218	 0.916477
 0.000562	-0.050947	 47.745949	 0.909971
 0.000575	-0.055351	 40.307789	 0.904041
 0.000587	-0.059312	 34.611908	 0.898723
 0.000600	-0.062803	 30.262819	 0.894048
 0.000612	-0.065800	 26.967453	 0.890044
 0.000625	-0.068284	 24.510376	 0.886734
 0.000637	-0.070239	 22.735430	 0.884133
 0.000650	-0.071652	 21.532423	 0.882254
 0.000662	-0.072517	 20.827671	 0.881105
 0.000675	-0.072831	 20.577652	 0.880688
 0.000687	-0.072595	 20.765156	 0.881001
 0.000700	-0.071815	 21.397575	 0.882037
 0.000712	-0.070501	 22.507057	 0.883784
 0.000725	-0.068666	 24.152639	 0.886225
 0.000737	-0.066329	 26.424217	 0.889339
 0.000750	-0.063512	 29.448839	 0.893101
 0.000762	-0.060239	 33.399456	 0.897480
 0.000775	-0.056539	 38.506695	 0.902444
 0.000787	-0.052445	 45.074062	 0.907953
 0.000800	-0.047990	 53.497280	 0.913965
 0.000812	-0.043213	 64.287903	 0.920435
 0.000825	-0.038152	 78.101669	 0.927314
 0.000837	-0.032850	 95.771034	 0.934550
 0.000850	-0.027348	 118.340706	 0.942087
 0.000862	-0.021691	 147.103668	 0.949868
 0.000875	-0.015924	 183.633362	 0.957833
 0.000887	-0.010093	 229.805252	 0.965921
 0.000900	-0.004242	 287.798401	 0.974070
 0.000912	 0.001583	 360.065186	 0.982217
 0.000925	 0.007337	 449.254944	 0.990298
 0.000937	 0.012976	 558.077637	 0.998251
 0.000950	 0.018459	 689.095398	 1.006013
 0.000962	 0.023745	 844.437683	 1.013525
 0.000975	 0.028794	 1025.445435	 1.020727
 0.000987	 0.033571	 1232.267822	 1.027563
 0.001000	 0.038042	 1463.450928	 1.033982
 0.001012	 0.042175	 1715.580566	 1.039934
 0.001025	 0.045941	 1983.048096	 1.045373
 0.001037	 0.049318	 2258.017578	 1.050261
 0.001050	 0.052281	 2530.650879	 1.054561
 0.001062	 0.054815	 2789.623291	 1.058243
 0.001075	 0.056903	 3022.908203	 1.061283
 0.001087	 0.058535	 3218.771729	 1.063662
 0.001100	 0.059704	 3366.844971	 1.065368
 0.001112	 0.060408	 3459.144775	 1.066395
 0.001125	 0.060645	 3490.876953	 1.066742
 0.001137	 0.060421	 3460.904297	 1.066414
 0.001150	 0.059743	 3371.815430	 1.065424
 0.001162	 0.058622	 3229.577393	 1.063789
 0.001175	 0.057074	 3042.848877	 1.061532
 0.001187	 0.055115	 2822.064941	 1.058680
 0.001200	 0.052768	 2578.429932	 1.055267
 0.001212	 0.050055	 2322.965820	 1.051330
 0.001225	 0.047003	 2065.713867	 1.046909
 0.001237	 0.043642	 1815.171265	 1.042051
 0.001250	 0.040001	 1577.975098	 1.036801
 0.001262	 0.036113	 1358.824341	 1.031210
 0.001275	 0.032013	 1160.587280	 1.025331
 0.001287	 0.027736	 984.543579	 1.019215
 0.001300	 0.023318	 830.693787	 1.012917
 0.001312	 0.018796	 698.091492	 1.006492
 0.001325	 0.014208	 585.153992	 0.999992
 0.001337	 0.009590	 489.931427	 0.993472
 0.001350	 0.004980	 410.320129	 0.986984
 0.001362	 0.000413	 344.220947	 0.980578
 0.001375	-0.004075	 289.646210	 0.974303
 0.001387	-0.008451	 244.784180	 0.968204
 0.001400	-0.012681	 208.030991	 0.962327
 0.001412	-0.016734	 177.998947	 0.956712
 0.001425	-0.020583	 153.509140	 0.951396
 0.001437	-0.024199	 133.574936	 0.946414
 0.001450	-0.027560	 117.380699	 0.941796
 0.001462	-0.030642	 104.259155	 0.937571
 0.001475	-0.033427	 93.669350	 0.933761
 0.001487	-0.035898	 85.176559	 0.930387
 0.001500	-0.038042	 78.434494	 0.927465
 0.001512	-0.039848	 73.170204	 0.925007
 0.001525	-0.041309	 69.171524	 0.923020
 0.001537	-0.042421	 66.276825	 0.921511
 0.001550	-0.043181	 64.366913	 0.920479
 0.001562	-0.043592	 63.358685	 0.919922
 0.001575	-0.043657	 63.200352	 0.919834
 0.001587	-0.043383	 63.867992	 0.920204
 0.001600	-0.042782	 65.363129	 0.921021
 0.001612	-0.041864	 67.711235	 0.922267
 0.001625	-0.040645	 70.960922	 0.923923
 0.001637	-0.039142	 75.183624	 0.925967
 0.001650	-0.037375	 80.473602	 0.928374
 0.001662	-0.035363	 86.947998	 0.931118
 0.001675	-0.033129	 94.746765	 0.934168
 0.001687	-0.030698	 104.032082	 0.937493
 0.001700	-0.028095	 114.986885	 0.941061
 0.001712	-0.025346	 127.812210	 0.944837
 0.001725	-0.022477	 142.722702	 0.948785
 0.001737	-0.019516	 159.940140	 0.952868
 0.001750	-0.016489	 179.684158	 0.957051
 0.001762	-0.013425	 202.160202	 0.961295
 0.001775	-0.010350	 227.544525	 0.965564
 0.001787	-0.007289	 255.966263	 0.969821
 0.001800	-0.004270	 287.487305	 0.974031
 0.001812	-0.001316	 322.081085	 0.978159
 0.001825	 0.001550	 359.611420	 0.982171
 0.001837	 0.004305	 399.814209	 0.986037
 0.001850	 0.006930	 442.283081	 0.989726
 0.001862	 0.009406	 486.462860	 0.993212
 0.001875	 0.011715	 531.651855	 0.996470
 0.001887	 0.013844	 577.015320	 0.999477
 0.001900	 0.015780	 621.610840	 1.002216
 0.001912	 0.017511	 664.424622	 1.004669
 0.001925	 0.019031	 704.417603	 1.006824
 0.001937	 0.020333	 740.578064	 1.008672
 0.001950	 0.021412	 771.975952	 1.010206
 0.001962	 0.022268	 797.815369	 1.011423
 0.001975	 0.022901	 817.479126	 1.012324
 0.001987	 0.023314	 830.562195	 1.012911
 0.002000	 0.023511	 836.891113	 1.013192
 0.002012	 0.023500	 836.526794	 1.013176
 0.002025	 0.023289	 829.752625	 1.012875
 0.002037	 0.022887	 817.048523	 1.012304
 0.002050	 0.022309	 799.054749	 1.011481
 0.002062	 0.021565	 776.528381	 1.010424
 0.002075	 0.020672	 750.298218	 1.009154
 0.002087	 0.019644	 721.220215	 1.007694
 0.002100	 0.018499	 690.137573	 1.006069
 0.002112	 0.017253	 657.847778	 1.004303
 0.002125	 0.015924	 625.076904	 1.002421
 0.002137	 0.014531	 592.462952	 1.000449
 0.002150	 0.013091	 560.546631	 0.998413
 0.002162	 0.011623	 529.769104	 0.996339
 0.002175	 0.010144	 500.475189	 0.994253
 0.002187	 0.008671	 472.920593	 0.992178
 0.002200	 0.007222	 447.282135	 0.990137
 0.002212	 0.005812	 423.668884	 0.988154
 0.002225	 0.004456	 402.134186	 0.986248
 0.002237	 0.003167	 382.686920	 0.984439
 0.002250	 0.001958	 365.302216	 0.982743
 0.002262	 0.000840	 349.930511	 0.981177
 0.002275	-0.000177	 336.505585	 0.979753
 0.002287	-0.001085	 324.950958	 0.978481
 0.002300	-0.001879	 315.184875	 0.977372
 0.002312	-0.002552	 307.124146	 0.976430
 0.002325	-0.003103	 300.686737	 0.975661
 0.002337	-0.003529	 295.793335	 0.975065
 0.002350	-0.003832	 292.368134	 0.974642
 0.002362	-0.004013	 290.338898	 0.974389
 0.002375	-0.004076	 289.636078	 0.974301
 0.002387	-0.004027	 290.191864	 0.974371
 0.002400	-0.003871	 291.938293	 0.974589
 0.002412	-0.003616	 294.805359	 0.974944
 0.002425	-0.003274	 298.718597	 0.975422
 0.002437	-0.002852	 303.596497	 0.976011
 0.002450	-0.002365	 309.348053	 0.976692
 0.002462	-0.001822	 315.869934	 0.977451
 0.002475	-0.001238	 323.044373	 0.978267
 0.002487	-0.000626	 330.737213	 0.979123
 0.002500	-0.000000	 338.796509	 0.980000
 0.002512	 0.000626	 347.052277	 0.980876
 0.002525	 0.001238	 355.317078	 0.981733
 0.002537	 0.001822	 363.387909	 0.982552
 0.002550	 0.002364	 371.049683	 0.983312
 0.002562	 0.002852	 378.079865	 0.983997
 0.002575	 0.003273	 384.254639	 0.984588
 0.002587	 0.003616	 389.356323	 0.985069
 0.002600	 0.003870	 393.181335	 0.985426
 0.002612	 0.004026	 395.548920	 0.985645
 0.002625	 0.004076	 396.309387	 0.985715
 0.002637	 0.004013	 395.351593	 0.985627
 0.002650	 0.003833	 392.609131	 0.985373
 0.002662	 0.003530	 388.064453	 0.984948
 0.002675	 0.003103	 381.750641	 0.984349
 0.002687	 0.002553	 373.750580	 0.983577
 0.002700	 0.001879	 364.193542	 0.982633
 0.002712	 0.001086	 353.249451	 0.981521
 0.002725	 0.000178	 341.121155	 0.980249
 0.002737	-0.000840	 328.035370	 0.978825
 0.002750	-0.001957	 314.232819	 0.977262
 0.002762	-0.003166	 299.958710	 0.975573
 0.002775	-0.004455	 285.453369	 0.973773
 0.002787	-0.005811	 270.944580	 0.971882
 0.002800	-0.007221	 256.641083	 0.969917
 0.002812	-0.008670	 242.728027	 0.967899
 0.002825	-0.010143	 229.364304	 0.965852
 0.002837	-0.011622	 216.681442	 0.963797
 0.002850	-0.013090	 204.784134	 0.961760
 0.002862	-0.014530	 193.752060	 0.959764
 0.002875	-0.015923	 183.642532	 0.957835
 0.002887	-0.017252	 174.493896	 0.955997
 0.002900	-0.018497	 166.329239	 0.954275
 0.002912	-0.019643	 159.160339	 0.952693
 0.002925	-0.020671	 152.991394	 0.951275
 0.002937	-0.021564	 147.822830	 0.950042
 0.002950	-0.022308	 143.654770	 0.949018
 0.002962	-0.022887	 140.490265	 0.948220
 0.002975	-0.023288	 138.338409	 0.947667
 0.002987	-0.023500	 137.217255	 0.947376
 0.003000	-0.023511	 137.156586	 0.947360
 0.003012	-0.023314	 138.200745	 0.947632
 0.003025	-0.022902	 140.411514	 0.948200
 0.003037	-0.022269	 143.871155	 0.949072
 0.003050	-0.021413	 148.685684	 0.950251
 0.003062	-0.020334	 154.988281	 0.951740
 0.003075	-0.019032	 162.943222	 0.953536
 0.003087	-0.017513	 172.749847	 0.955636
 0.003100	-0.015781	 184.646790	 0.958031
 0.003112	-0.013846	 198.916168	 0.960712
 0.003125	-0.011717	 215.887451	 0.963665
 0.003137	-0.009408	 235.940521	 0.966874
 0.003150	-0.006932	 259.507324	 0.970319
 0.003162	-0.004308	 287.071228	 0.973979
 0.003175	-0.001552	 319.163086	 0.977828
 0.003187	 0.001313	 356.352234	 0.981839
 0.003200	 0.004267	 399.231567	 0.985983
 0.003212	 0.007287	 448.394287	 0.990228
 0.003225	 0.010347	 504.401062	 0.994539
 0.003237	 0.013422	 567.736389	 0.998881
 0.003250	 0.016487	 638.752991	 1.003217
 0.003262	 0.019513	 717.605896	 1.007509
 0.003275	 0.022475	 804.176758	 1.011717
 0.003287	 0.025344	 897.994812	 1.015802
 0.003300	 0.028093	 998.158997	 1.019725
 0.003312	 0.030696	 1103.273315	 1.023446
 0.003325	 0.033127	 1211.403076	 1.026927
 0.003337	 0.035361	 1320.068604	 1.030130
 0.003350	 0.037373	 1426.284180	 1.033020
 0.003362	 0.039141	 1526.651489	 1.035563
 0.003375	 0.040644	 1617.513550	 1.037728
 0.003387	 0.041863	 1695.160034	 1.039485
 0.003400	 0.042781	 1756.074951	 1.040809
 0.003412	 0.043383	 1797.203735	 1.041677
 0.003425	 0.043657	 1816.209229	 1.042072
 0.003437	 0.043592	 1811.691406	 1.041979
 0.003450	 0.043182	 1783.334106	 1.041386
 0.003462	 0.042422	 1731.963867	 1.040290
 0.003475	 0.041310	 1659.503906	 1.038688
 0.003487	 0.039850	 1568.831787	 1.036583
 0.003500	 0.038044	 1463.553223	 1.033985
 0.003512	 0.035900	 1347.722046	 1.030904
 0.003525	 0.033429	 1225.540283	 1.027359
 0.003537	 0.030644	 1101.071045	 1.023372
 0.003550	 0.027562	 977.995911	 1.018967
 0.003562	 0.024202	 859.434204	 1.014176
 0.003575	 0.020586	 747.836975	 1.009032
 0.003587	 0.016738	 644.951294	 1.003573
 0.003600	 0.012684	 551.847473	 0.997839
 0.003612	 0.008455	 468.992706	 0.991872
 0.003625	 0.004079	 396.354187	 0.985719
 0.003637	-0.000409	 333.515015	 0.979428
 0.003650	-0.004976	 279.789093	 0.973046
 0.003662	-0.009586	 234.325027	 0.966625
 0.003675	-0.014204	 196.193054	 0.960215
 0.003687	-0.018792	 164.452621	 0.953867
 0.003700	-0.023314	 138.200912	 0.947632
 0.003712	-0.027732	 116.604462	 0.941559
 0.003725	-0.032009	 98.916771	 0.935699
 0.003737	-0.036110	 84.485390	 0.930098
 0.003750	-0.039997	 72.751427	 0.924804
 0.003762	-0.043639	 63.244133	 0.919858
 0.003775	-0.047001	 55.572941	 0.915304
 0.003787	-0.050052	 49.418095	 0.911179
 0.003800	-0.052765	 44.521351	 0.907520
 0.003812	-0.055113	 40.677219	 0.904360
 0.003825	-0.057072	 37.725246	 0.901728
 0.003837	-0.058621	 35.543541	 0.899649
 0.003850	-0.059742	 34.043659	 0.898146
 0.003862	-0.060420	 33.166824	 0.897237
 0.003875	-0.060645	 32.881557	 0.896936
 0.003887	-0.060408	 33.182671	 0.897253
 0.003900	-0.059705	 34.091827	 0.898195
 0.003912	-0.058536	 35.659637	 0.899763
 0.003925	-0.056904	 37.969608	 0.901953
 0.003937	-0.054816	 41.144333	 0.904759
 0.003950	-0.052284	 45.354267	 0.908170
 0.003962	-0.049320	 50.829819	 0.912168
 0.003975	-0.045944	 57.877335	 0.916734
 0.003987	-0.042177	 66.900154	 0.921841
 0.004000	-0.038045	 78.425446	 0.927461
 0.004012	-0.033574	 93.138161	 0.933559
 0.004025	-0.028798	 111.922745	 0.940098
 0.004037	-0.023748	 135.913315	 0.947034
 0.004050	-0.018463	 166.551880	 0.954323
 0.004062	-0.012980	 205.652542	 0.961913
 0.004075	-0.007340	 255.467819	 0.969751
 0.004087	-0.001586	 318.748993	 0.977781
 0.004100	 0.004239	 398.788757	 0.985943
 0.004112	 0.010089	 499.428284	 0.994176
 0.004125	 0.015921	 625.005249	 1.002416
 0.004137	 0.021688	 780.215027	 1.010599
 0.004150	 0.027345	 969.854370	 1.018657
 0.004162	 0.032847	 1198.421631	 1.026525
 0.004175	 0.038150	 1469.558472	 1.034138
 0.004187	 0.043211	 1785.342529	 1.041429
 0.004200	 0.047988	 2145.471680	 1.048335
 0.004212	 0.052443	 2546.428223	 1.054795
 0.004225	 0.056538	 2980.750977	 1.060751
 0.004238	 0.060237	 3436.578125	 1.066147
 0.004250	 0.063511	 3897.634521	 1.070932
 0.004263	 0.066329	 4343.809570	 1.075060
 0.004275	 0.068666	 4752.385254	 1.078490
 0.004288	 0.070501	 5099.886719	 1.081186
 0.004300	 0.071815	 5364.356934	 1.083120
 0.004313	 0.072595	 5527.764160	 1.084269
 0.004325	 0.072831	 5578.164062	 1.084616
 0.004338	 0.072517	 5511.228027	 1.084154
 0.004350	 0.071652	 5330.866211	 1.082880
 0.004363	 0.070239	 5048.807129	 1.080801
 0.004375	 0.068285	 4683.202637	 1.077930
 0.004388	 0.065801	 4256.508301	 1.074286
 0.004400	 0.062803	 3793.012695	 1.069897
 0.004413	 0.059312	 3316.407715	 1.064796
 0.004425	 0.055351	 2847.764160	 1.059023
 0.004438	 0.050948	 2404.117188	 1.052625
 0.004450	 0.046134	 1997.774536	 1.045652
 0.004463	 0.040944	 1636.277344	 1.038160
 0.004475	 0.035416	 1322.877075	 1.030210
 0.004488	 0.029591	 1057.339233	 1.021865
 0.004500	 0.023511	 836.881531	 1.013192
 0.004513	 0.017223	 657.094299	 1.004260
 0.004525	 0.010773	 512.738220	 0.995141
 0.004538	 0.004211	 398.366730	 0.985904
 0.004550	-0.002414	 308.761536	 0.976623
 0.004563	-0.009051	 239.200195	 0.967370
 0.004575	-0.015649	 185.587463	 0.958214
 0.004588	-0.022157	 144.488647	 0.949225
 0.004600	-0.028526	 113.098701	 0.940471
 0.004613	-0.034705	 89.175659	 0.932015
 0.004625	-0.040646	 70.958488	 0.923921
 0.004638	-0.046303	 57.083176	 0.916247
 0.004650	-0.051632	 46.505024	 0.909048
 0.004663	-0.056590	 38.431000	 0.902375
 0.004675	-0.061138	 32.263359	 0.896275
 0.004688	-0.065241	 27.554245	 0.890791
 0.004700	-0.068864	 23.969950	 0.885962
 0.004713	-0.071979	 21.263437	 0.881820
 0.004725	-0.074561	 19.253544	 0.878395
 0.004738	-0.076588	 17.809586	 0.875710
 0.004750	-0.078043	 16.840187	 0.873786
 0.004763	-0.078914	 16.285448	 0.872635
 0.004775	-0.079192	 16.111921	 0.872267
 0.004788	-0.078875	 16.309767	 0.872686
 0.004800	-0.077963	 16.892012	 0.873891
 0.004813	-0.076462	 17.895834	 0.875877
 0.004825	-0.074382	 19.385893	 0.878631
 0.004838	-0.071739	 21.460241	 0.882138
 0.004850	-0.068552	 24.259148	 0.886377
 0.004863	-0.064844	 27.977913	 0.891321
 0.004875	-0.060643	 32.884567	 0.896939
 0.004888	-0.055980	 39.344090	 0.903195
 0.004900	-0.050890	 47.850960	 0.910048
 0.004913	-0.045413	 59.072128	 0.917453
 0.004925	-0.039589	 73.902916	 0.925359
 0.004938	-0.033463	 93.538002	 0.933712
 0.004950	-0.027082	 119.559212	 0.942453
 0.004963	-0.020493	 154.040054	 0.951520
 0.004975	-0.013748	 199.664139	 0.960847
 0.004988	-0.006898	 259.849335	 0.970367
 0.005000	 0.000005	 338.862762	 0.980007
 0.005013	 0.006908	 441.901550	 0.989694
 0.005025	 0.013758	 575.102417	 0.999355
 0.005038	 0.020502	 745.432861	 1.008914
 0.005050	 0.027091	 960.406128	 1.018294
 0.005063	 0.033472	 1227.564941	 1.027421
 0.005075	 0.039597	 1553.690430	 1.036220
 0.005088	 0.045421	 1943.729736	 1.044621
 0.005100	 0.050898	 2399.492188	 1.052552
 0.005113	 0.055986	 2918.239990	 1.059948
 0.005125	 0.060649	 3491.387695	 1.066747
 0.005138	 0.064849	 4103.587891	 1.072892
 0.005150	 0.068557	 4732.511230	 1.078330
 0.005163	 0.071743	 5349.587891	 1.083014
 0.005175	 0.074386	 5921.831055	 1.086907
 0.005188	 0.076464	 6414.705078	 1.089974
 0.005200	 0.077964	 6795.691895	 1.092190
 0.005213	 0.078876	 7038.068848	 1.093537
 0.005225	 0.079192	 7124.263672	 1.094005
 0.005238	 0.078913	 7048.127930	 1.093592
 0.005250	 0.078041	 6815.740723	 1.092303
 0.005263	 0.076585	 6444.549316	 1.090152
 0.005275	 0.074557	 5961.048340	 1.087160
 0.005288	 0.071975	 5397.431641	 1.083355
 0.005300	 0.068859	 4787.858398	 1.078774
 0.005313	 0.065235	 4164.937012	 1.073457
 0.005325	 0.061132	 3556.940430	 1.067454
 0.005338	 0.056584	 2986.032715	 1.060818
 0.005350	 0.051625	 2467.557373	 1.053607
 0.005363	 0.046296	 2010.253662	 1.045886
 0.005375	 0.040638	 1617.139526	 1.037719
 0.005388	 0.034696	 1286.765625	 1.029177
 0.005400	 0.028517	 1014.572815	 1.020331
 0.005413	 0.022148	 794.151367	 1.011253
 0.005425	 0.015640	 618.280640	 1.002018
 0.005438	 0.009042	 479.701752	 0.992699
 0.005450	 0.002405	 371.628754	 0.983369
 0.005463	-0.004220	 288.038361	 0.974101
 0.005475	-0.010782	 223.789505	 0.964963
 0.005488	-0.017232	 174.626816	 0.956024
 0.005500	-0.023520	 137.113098	 0.947349
 0.005513	-0.029599	 108.526047	 0.939000
 0.005525	-0.035424	 86.743172	 0.931034
 0.005538	-0.040951	 70.130234	 0.923506
 0.005550	-0.046141	 57.441265	 0.916467
 0.005563	-0.050954	 47.733582	 0.909962
 0.005575	-0.055357	 40.298191	 0.904033
 0.005588	-0.059317	 34.604469	 0.898715
 0.005600	-0.062808	 30.257088	 0.894042
 0.005613	-0.065804	 26.963089	 0.890039
 0.005625	-0.068288	 24.507124	 0.886729
 0.005638	-0.070241	 22.733116	 0.884129
 0.005650	-0.071654	 21.530924	 0.882252
 0.005663	-0.072518	 20.826912	 0.881104
 0.005675	-0.072831	 20.577604	 0.880688
 0.005688	-0.072595	 20.765829	 0.881002
 0.005700	-0.071814	 21.399010	 0.882039
 0.005713	-0.070498	 22.509359	 0.883787
 0.005725	-0.068663	 24.155941	 0.886229
 0.005738	-0.066325	 26.428730	 0.889345
 0.005750	-0.063506	 29.454847	 0.893108
 0.005763	-0.060232	 33.407345	 0.897488
 0.005775	-0.056532	 38.516964	 0.902453
 0.005788	-0.052437	 45.087387	 0.907963
 0.005800	-0.047982	 53.514530	 0.913976
 0.005813	-0.043204	 64.310226	 0.920448
 0.005825	-0.038143	 78.130531	 0.927328
 0.005838	-0.032840	 95.808296	 0.934564
 0.005850	-0.027337	 118.388741	 0.942101
 0.005863	-0.021680	 147.165390	 0.949883
 0.005875	-0.015913	 183.712357	 0.957848
 0.005888	-0.010081	 229.905777	 0.965937
 0.005900	-0.004230	 287.925415	 0.974086
 0.005913	 0.001594	 360.224274	 0.982233
 0.005925	 0.007348	 449.452118	 0.990314
 0.005938	 0.012988	 558.318970	 0.998267
 0.005950	 0.018470	 689.386536	 1.006029
 0.005963	 0.023755	 844.783203	 1.013540
 0.005975	 0.028804	 1025.848022	 1.020741
 0.005988	 0.033581	 1232.727173	 1.027577
 0.006000	 0.038051	 1463.963013	 1.033995
 0.006013	 0.042183	 1716.136475	 1.039946
 0.006025	 0.045949	 1983.634399	 1.045385
 0.006038	 0.049325	 2258.614990	 1.050271
 0.006050	 0.052287	 2531.236572	 1.054569
 0.006063	 0.054820	 2790.170410	 1.058250
 0.006075	 0.056907	 3023.389404	 1.061289
 0.006088	 0.058538	 3219.160400	 1.063667
 0.006100	 0.059706	 3367.118896	 1.065372
 0.006113	 0.060409	 3459.287598	 1.066397
 0.006125	 0.060645	 3490.878418	 1.066742
 0.006138	 0.060420	 3460.764404	 1.066413
 0.006150	 0.059741	 3371.542480	 1.065421
 0.006163	 0.058619	 3229.185791	 1.063785
 0.006175	 0.057069	 3042.361084	 1.061526
 0.006188	 0.055110	 2821.504883	 1.058673
 0.006200	 0.052762	 2577.824463	 1.055258
 0.006213	 0.050048	 2322.339600	 1.051319
 0.006225	 0.046995	 2065.089600	 1.046898
 0.006238	 0.043633	 1814.567505	 1.042038
 0.006250	 0.039991	 1577.406738	 1.036788
 0.006263	 0.036103	 1358.301147	 1.031196
 0.006275	 0.032002	 1160.115356	 1.025316
 0.006288	 0.027725	 984.124878	 1.019199
 0.006300	 0.023307	 830.327942	 1.012901
 0.006313	 0.018785	 697.775879	 1.006475
 0.006325	 0.014196	 584.884766	 0.999975
 0.006338	 0.009578	 489.703827	 0.993455
 0.006350	 0.004968	 410.129211	 0.986967
 0.006363	 0.000401	 344.061829	 0.980561
 0.006375	-0.004087	 289.514221	 0.974286
 0.006388	-0.008462	 244.675125	 0.968188
 0.006400	-0.012692	 207.941162	 0.962312
 0.006413	-0.016745	 177.925125	 0.956697
 0.006425	-0.020593	 153.448578	 0.951382
 0.006438	-0.024209	 133.525360	 0.946400
 0.006450	-0.027569	 117.340202	 0.941784
 0.006463	-0.030650	 104.226181	 0.937560
 0.006475	-0.033434	 93.642632	 0.933751
 0.006488	-0.035904	 85.155098	 0.930378
 0.006500	-0.038047	 78.417458	 0.927457
 0.006513	-0.039853	 73.156975	 0.925000
 0.006525	-0.041313	 69.161613	 0.923015
 0.006538	-0.042424	 66.269882	 0.921507
 0.006550	-0.043183	 64.362671	 0.920476
 0.006563	-0.043592	 63.356987	 0.919921
 0.006575	-0.043656	 63.201122	 0.919834
 0.006588	-0.043382	 63.871216	 0.920206
 0.006600	-0.042779	 65.368889	 0.921024
 0.006613	-0.041861	 67.719673	 0.922271
 0.006625	-0.040641	 70.972260	 0.923928
 0.006638	-0.039137	 75.198143	 0.925974
 0.006650	-0.037369	 80.491661	 0.928382
 0.006663	-0.035356	 86.970039	 0.931127
 0.006675	-0.033122	 94.773323	 0.934178
 0.006688	-0.030691	 104.063728	 0.937504
 0.006700	-0.028087	 115.024300	 0.941073
 0.006713	-0.025337	 127.856110	 0.944849
 0.006725	-0.022468	 142.773880	 0.948797
 0.006738	-0.019506	 159.999374	 0.952882
 0.006750	-0.016480	 179.752228	 0.957064
 0.006763	-0.013415	 202.237854	 0.961309
 0.006775	-0.010340	 227.632370	 0.965578
 0.006788	-0.007279	 256.064728	 0.969835
 0.006800	-0.004260	 287.596588	 0.974045
 0.006813	-0.001306	 322.201019	 0.978172
 0.006825	 0.001559	 359.741486	 0.982184
 0.006838	 0.004314	 399.953369	 0.986049
 0.006850	 0.006939	 442.429810	 0.989738
 0.006863	 0.009414	 486.615112	 0.993223
 0.006875	 0.011723	 531.807007	 0.996480
 0.006888	 0.013851	 577.170349	 0.999487
 0.006900	 0.015786	 621.762329	 1.002225
 0.006913	 0.017517	 664.568909	 1.004677
 0.006925	 0.019036	 704.551025	 1.006831
 0.006938	 0.020337	 740.697083	 1.008678
 0.006950	 0.021416	 772.077332	 1.010211
 0.006963	 0.022271	 797.896301	 1.011427
 0.006975	 0.022903	 817.537659	 1.012327
 0.006988	 0.023315	 830.596985	 1.012913
 0.007000	 0.023512	 836.901672	 1.013193
 0.007013	 0.023500	 836.513550	 1.013176
 0.007025	 0.023288	 829.716797	 1.012874
 0.007038	 0.022886	 816.991943	 1.012302
 0.007050	 0.022306	 798.979736	 1.011477
 0.007063	 0.021562	 776.437744	 1.010419
 0.007075	 0.020668	 750.194946	 1.009149
 0.007088	 0.019640	 721.107422	 1.007689
 0.007100	 0.018494	 690.018250	 1.006063
 0.007113	 0.017248	 657.724731	 1.004296
 0.007125	 0.015919	 624.952698	 1.002413
 0.007138	 0.014525	 592.339844	 1.000441
 0.007150	 0.013085	 560.426514	 0.998405
 0.007163	 0.011617	 529.653503	 0.996331
 0.007175	 0.010138	 500.365265	 0.994245
 0.007188	 0.008666	 472.817291	 0.992170
 0.007200	 0.007217	 447.186066	 0.990129
 0.007213	 0.005807	 423.580414	 0.988146
 0.007225	 0.004451	 402.053528	 0.986241
 0.007238	 0.003162	 382.614105	 0.984432
 0.007250	 0.001954	 365.237152	 0.982737
 0.007263	 0.000836	 349.873077	 0.981171
 0.007275	-0.000181	 336.455536	 0.979747
 0.007288	-0.001089	 324.908051	 0.978477
 0.007300	-0.001881	 315.148865	 0.977368
 0.007313	-0.002555	 307.094727	 0.976427
 0.007325	-0.003105	 300.663635	 0.975658
 0.007338	-0.003531	 295.776306	 0.975063
 0.007350	-0.003833	 292.356964	 0.974641
 0.007363	-0.004014	 290.333313	 0.974389
 0.007375	-0.004076	 289.635834	 0.974301
 0.007388	-0.004026	 290.196716	 0.974372
 0.007400	-0.003870	 291.948029	 0.974590
 0.007413	-0.003615	 294.819733	 0.974945
 0.007425	-0.003272	 298.737274	 0.975425
 0.007438	-0.002851	 303.619202	 0.976013
 0.007450	-0.002362	 309.374359	 0.976696
 0.007463	-0.001820	 315.899414	 0.977454
 0.007475	-0.001236	 323.076508	 0.978271
 0.007488	-0.000624	 330.771423	 0.979127
 0.007500	 0.000002	 338.832092	 0.980003
 0.007513	 0.000628	 347.088470	 0.980880
 0.007525	 0.001240	 355.353027	 0.981737
 0.007538	 0.001824	 363.422699	 0.982555
 0.007550	 0.002366	 371.082336	 0.983316
 0.007563	 0.002854	 378.109344	 0.984000
 0.007575	 0.003275	 384.279938	 0.984590
 0.007588	 0.003618	 389.376434	 0.985071
 0.007600	 0.003871	 393.195374	 0.985427
 0.007613	 0.004027	 395.556061	 0.985646
 0.007625	 0.004076	 396.308990	 0.985715
 0.007638	 0.004013	 395.343170	 0.985626
 0.007650	 0.003831	 392.592438	 0.985371
 0.007663	 0.003528	 388.039490	 0.984946
 0.007675	 0.003101	 381.717560	 0.984346
 0.007688	 0.002550	 373.709839	 0.983573
 0.007700	 0.001876	 364.145752	 0.982628
 0.007713	 0.001082	 353.195465	 0.981515
 0.007725	 0.000173	 341.061920	 0.980242
 0.007738	-0.000845	 327.971954	 0.978818
 0.007750	-0.001963	 314.166382	 0.977254
 0.007763	-0.003172	 299.890320	 0.975564
 0.007775	-0.004461	 285.384186	 0.973765
 0.007788	-0.005818	 270.875641	 0.971872
 0.007800	-0.007228	 256.573303	 0.969907
 0.007813	-0.008677	 242.662277	 0.967890
 0.007825	-0.010150	 229.301300	 0.965842
 0.007838	-0.011629	 216.621765	 0.963787
 0.007850	-0.013097	 204.728271	 0.961750
 0.007863	-0.014537	 193.700363	 0.959755
 0.007875	-0.015930	 183.595276	 0.957825
 0.007888	-0.017258	 174.451248	 0.955988
 0.007900	-0.018503	 166.291351	 0.954266
 0.007913	-0.019648	 159.127258	 0.952685
 0.007925	-0.020676	 152.963181	 0.951268
 0.007938	-0.021568	 147.799515	 0.950037
 0.007950	-0.022311	 143.636368	 0.949013
 0.007963	-0.022890	 140.476868	 0.948217
 0.007975	-0.023290	 138.330139	 0.947665
 0.007988	-0.023501	 137.214249	 0.947375
 0.008000	-0.023511	 137.159058	 0.947361
 0.008013	-0.023313	 138.209015	 0.947634
 0.008025	-0.022899	 140.425995	 0.948204
 0.008038	-0.022265	 143.892380	 0.949077
 0.008050	-0.021408	 148.714279	 0.950258
 0.008063	-0.020327	 155.025116	 0.951748
 0.008075	-0.019025	 162.989273	 0.953546
 0.008088	-0.017504	 172.806305	 0.955647
 0.008100	-0.015771	 184.715118	 0.958044
 0.008113	-0.013835	 198.998047	 0.960727
 0.008125	-0.011705	 215.984863	 0.963681
 0.008138	-0.009395	 236.055695	 0.966891
 0.008150	-0.006919	 259.642822	 0.970338
 0.008163	-0.004293	 287.229919	 0.973999
 0.008175	-0.001537	 319.348053	 0.977849
 0.008188	 0.001329	 356.566833	 0.981861
 0.008200	 0.004284	 399.479187	 0.986006
 0.008213	 0.007303	 448.678314	 0.990251
 0.008225	 0.010364	 504.724640	 0.994563
 0.008238	 0.013439	 568.102051	 0.998905
 0.008250	 0.016503	 639.162598	 1.003241
 0.008263	 0.019530	 718.059753	 1.007532
 0.008275	 0.022491	 804.673767	 1.011740
 0.008288	 0.025359	 898.531372	 1.015824
 0.008300	 0.028108	 998.729187	 1.019746
 0.008313	 0.030710	 1103.867920	 1.023466
 0.008325	 0.033140	 1212.010132	 1.026945
 0.008338	 0.035373	 1320.672852	 1.030147
 0.008350	 0.037383	 1426.867188	 1.033036
 0.008363	 0.039150	 1527.193359	 1.035577
 0.008375	 0.040652	 1617.992920	 1.037739
 0.008388	 0.041869	 1695.555542	 1.039493
 0.008400	 0.042785	 1756.367676	 1.040815
 0.008413	 0.043386	 1797.376831	 1.041681
 0.008425	 0.043657	 1816.251221	 1.042073
 0.008438	 0.043590	 1811.596313	 1.041977
 0.008450	 0.043178	 1783.102539	 1.041382
 0.008463	 0.042416	 1731.603027	 1.040282
 0.008475	 0.041303	 1659.027466	 1.038677
 0.008488	 0.039840	 1568.257812	 1.036570
 0.008500	 0.038032	 1462.903687	 1.033968
 0.008513	 0.035886	 1347.021118	 1.030885
 0.008525	 0.033413	 1224.811890	 1.027337
 0.008538	 0.030627	 1100.338379	 1.023347
 0.008550	 0.027543	 977.278992	 1.018940
 0.008563	 0.024182	 858.749756	 1.014147
 0.008575	 0.020564	 747.197754	 1.009001
 0.008588	 0.016714	 644.365906	 1.003540
 0.008600	 0.012660	 551.320801	 0.997804
 0.008613	 0.008429	 468.526306	 0.991836
 0.008625	 0.004053	 395.946930	 0.985682
 0.008638	-0.000436	 333.163818	 0.979389
 0.008650	-0.005004	 279.489563	 0.973008
 0.008663	-0.009614	 234.072021	 0.966586
 0.008675	-0.014232	 195.981079	 0.960176
 0.008688	-0.018820	 164.276245	 0.953829
 0.008700	-0.023342	 138.055023	 0.947594
 0.008713	-0.027759	 116.484375	 0.941523
 0.008725	-0.032035	 98.818329	 0.935664
 0.008738	-0.036134	 84.404976	 0.930065
 0.008750	-0.040021	 72.685951	 0.924772
 0.008763	-0.043660	 63.191036	 0.919828
 0.008775	-0.047021	 55.530079	 0.915277
 0.008788	-0.050071	 49.383736	 0.911155
 0.008800	-0.052781	 44.494099	 0.907499
 0.008813	-0.055127	 40.655972	 0.904342
 0.008825	-0.057083	 37.709141	 0.901713
 0.008838	-0.058629	 35.531960	 0.899638
 0.008850	-0.059748	 34.036163	 0.898138
 0.008863	-0.060423	 33.163151	 0.897233
 0.008875	-0.060645	 32.881607	 0.896936
 0.008888	-0.060405	 33.186527	 0.897258
 0.008900	-0.059699	 34.099735	 0.898203
 0.008913	-0.058527	 35.672016	 0.899775
 0.008925	-0.056892	 37.987114	 0.901969
 0.008938	-0.054802	 41.167900	 0.904779
 0.008950	-0.052266	 45.385166	 0.908194
 0.008963	-0.049300	 50.869751	 0.912196
 0.008975	-0.045921	 57.928574	 0.916765
 0.008988	-0.042152	 66.965652	 0.921876
 0.009000	-0.038017	 78.509071	 0.927499
 0.009013	-0.033545	 93.244926	 0.933600
 0.009025	-0.028766	 112.059067	 0.940141
 0.009038	-0.023715	 136.087448	 0.947080
 0.009050	-0.018428	 166.774200	 0.954371
 0.009063	-0.012944	 205.936096	 0.961962
 0.009075	-0.007303	 255.828629	 0.969802
 0.009088	-0.001549	 319.206512	 0.977833
 0.009100	 0.004276	 399.365936	 0.985996
 0.009113	 0.010127	 500.151520	 0.994229
 0.009125	 0.015958	 625.903870	 1.002469
 0.009138	 0.021725	 781.319824	 1.010651
 0.009150	 0.027381	 971.195862	 1.018708
 0.009163	 0.032882	 1200.026611	 1.026575
 0.009175	 0.038183	 1471.446167	 1.034186
 0.009188	 0.043243	 1787.519287	 1.041474
 0.009200	 0.048018	 2147.926025	 1.048378
 0.009213	 0.052470	 2549.125732	 1.054835
 0.009225	 0.056563	 2983.629639	 1.060787
 0.009238	 0.060260	 3439.546875	 1.066179
 0.009250	 0.063530	 3900.575195	 1.070960
 0.009263	 0.066345	 4346.582520	 1.075084
 0.009275	 0.068679	 4754.839844	 1.078509
 0.009288	 0.070511	 5101.875977	 1.081201
 0.009300	 0.071822	 5365.748047	 1.083130
 0.009313	 0.072599	 5528.459473	 1.084273
 0.009325	 0.072831	 5578.109375	 1.084616
 0.009338	 0.072514	 5510.420898	 1.084148
 0.009350	 0.071645	 5329.359863	 1.082870
 0.009363	 0.070228	 5046.699707	 1.080785
 0.009375	 0.068270	 4680.626953	 1.077909
 0.009388	 0.065783	 4253.618164	 1.074260
 0.009400	 0.062782	 3789.963867	 1.069866
 0.009413	 0.059288	 3313.347168	 1.064761
 0.009425	 0.055324	 2844.814453	 1.058984
 0.009438	 0.050918	 2401.373291	 1.052582
 0.009450	 0.046102	 1995.300049	 1.045605
 0.009463	 0.040909	 1634.105957	 1.038110
 0.009475	 0.035379	 1321.017700	 1.030157
 0.009488	 0.029552	 1055.781006	 1.021810
 0.009500	 0.023471	 835.600342	 1.013135
 0.009513	 0.017182	 656.058228	 1.004202
 0.009525	 0.010731	 511.912445	 0.995081
 0.009538	 0.004169	 397.716492	 0.985845
 0.009550	-0.002457	 308.254730	 0.976564
 0.009563	-0.009093	 238.808350	 0.967310
 0.009575	-0.015691	 185.286407	 0.958155
 0.009588	-0.022199	 144.258362	 0.949168
 0.009600	-0.028566	 112.923065	 0.940415
 0.009613	-0.034744	 89.041893	 0.931962
 0.009625	-0.040684	 70.856628	 0.923871
 0.009638	-0.046339	 57.005554	 0.916199
 0.009650	-0.051665	 46.445816	 0.909003
 0.009663	-0.056621	 38.385780	 0.902334
 0.009675	-0.061166	 32.228817	 0.896238
 0.009688	-0.065265	 27.527901	 0.890758
 0.009700	-0.068886	 23.949963	 0.885933
 0.009713	-0.071997	 21.248447	 0.881796
 0.009725	-0.074575	 19.242561	 0.878375
 0.009738	-0.076599	 17.801912	 0.875695
 0.009750	-0.078050	 16.835337	 0.873776
 0.009763	-0.078917	 16.283138	 0.872630
 0.009775	-0.079192	 16.112009	 0.872267
 0.009788	-0.078871	 16.312258	 0.872691
 0.009800	-0.077955	 16.897072	 0.873901
 0.009813	-0.076450	 17.903780	 0.875892
 0.009825	-0.074367	 19.397245	 0.878651
 0.009838	-0.071721	 21.475750	 0.882163
 0.009850	-0.068530	 24.279888	 0.886406
 0.009863	-0.064818	 28.005346	 0.891355
 0.009875	-0.060614	 32.920708	 0.896977
 0.009888	-0.055948	 39.391663	 0.903238
 0.009900	-0.050856	 47.913651	 0.910094
 0.009913	-0.045377	 59.154903	 0.917502
 0.009925	-0.039551	 74.012413	 0.925411
 0.009938	-0.033423	 93.683052	 0.933767
 0.009950	-0.027040	 119.751465	 0.942510
 0.009963	-0.020450	 154.294708	 0.951579
 0.009975	-0.013704	 200.000671	 0.960908
 0.009988	-0.006854	 260.292389	 0.970428
 0.010000	 0.000049	 339.442749	 0.980069
 0.010013	 0.006952	 442.654968	 0.989757
 0.010025	 0.013801	 576.071655	 0.999417
 0.010038	 0.020545	 746.664978	 1.008975
 0.010050	 0.027132	 961.950195	 1.018353
 0.010063	 0.033512	 1229.468140	 1.027478
 0.010075	 0.039636	 1555.991577	 1.036276
 0.010088	 0.045457	 1946.452026	 1.044673
 0.010100	 0.050932	 2402.633789	 1.052601
 0.010113	 0.056018	 2921.765625	 1.059994
 0.010125	 0.060677	 3495.221680	 1.066789
 0.010138	 0.064875	 4107.607910	 1.072929
 0.010150	 0.068579	 4736.553223	 1.078362
 0.010163	 0.071762	 5353.449219	 1.083042
 0.010175	 0.074401	 5925.291992	 1.086929
 0.010188	 0.076476	 6417.547363	 1.089991
 0.010200	 0.077972	 6797.717773	 1.092201
 0.010213	 0.078880	 7039.135742	 1.093542
 0.010225	 0.079192	 7124.291992	 1.094005
 0.010238	 0.078909	 7047.120117	 1.093586
 0.010250	 0.078034	 6813.771973	 1.092292
 0.010263	 0.076574	 6441.765137	 1.090135
 0.010275	 0.074543	 5957.641602	 1.087138
 0.010288	 0.071957	 5393.620605	 1.083328
 0.010300	 0.068837	 4783.860840	 1.078742
 0.010313	 0.065210	 4160.950195	 1.073421
 0.010325	 0.061105	 3553.128906	 1.067413
 0.010338	 0.056553	 2982.517090	 1.060773
 0.010350	 0.051592	 2464.414062	 1.053559
 0.010363	 0.046260	 2007.519043	 1.045835
 0.010375	 0.040601	 1614.817139	 1.037665
 0.010388	 0.034657	 1284.834839	 1.029121
 0.010400	 0.028477	 1012.996887	 1.020273
 0.010413	 0.022107	 792.885498	 1.011194
 0.010425	 0.015598	 617.277649	 1.001958
 0.010438	 0.008999	 478.915924	 0.992639
 0.010450	 0.002362	 371.018768	 0.983309
 0.010463	-0.004263	 287.568268	 0.974041
 0.010475	-0.010824	 223.429123	 0.964905
 0.010488	-0.017273	 174.351532	 0.955967
 0.010500	-0.023560	 136.903244	 0.947294
 0.010513	-0.029637	 108.366158	 0.938947
 0.010525	-0.035460	 86.621292	 0.930984
 0.010538	-0.040986	 70.037216	 0.923460
 0.010550	-0.046173	 57.370159	 0.916424
 0.010563	-0.050984	 47.679138	 0.909922
 0.010575	-0.055384	 40.256485	 0.903997
 0.010588	-0.059341	 34.572567	 0.898683
 0.010600	-0.062829	 30.232801	 0.894014
 0.010613	-0.065822	 26.944805	 0.890015
 0.010625	-0.068302	 24.493671	 0.886710
 0.010638	-0.070252	 22.723652	 0.884115
 0.010650	-0.071661	 21.524866	 0.882242
 0.010663	-0.072522	 20.823887	 0.881099
 0.010675	-0.072832	 20.577421	 0.880688
 0.010688	-0.072591	 20.768459	 0.881007
 0.010700	-0.071807	 21.404579	 0.882048
 0.010713	-0.070488	 22.518160	 0.883801
 0.010725	-0.068649	 24.168446	 0.886247
 0.010738	-0.066308	 26.445633	 0.889367
 0.010750	-0.063487	 29.477097	 0.893134
 0.010763	-0.060210	 33.436234	 0.897519
 0.010775	-0.056507	 38.554195	 0.902487
 0.010788	-0.052409	 45.135185	 0.908000
 0.010800	-0.047952	 53.575790	 0.914017
 0.010813	-0.043172	 64.388664	 0.920491
 0.010825	-0.038109	 78.230927	 0.927373
 0.010838	-0.032805	 95.936653	 0.934611
 0.010850	-0.027301	 118.552521	 0.942151
 0.010863	-0.021643	 147.373825	 0.949933
 0.010875	-0.015876	 183.976517	 0.957900
 0.010888	-0.010044	 230.238724	 0.965989
 0.010900	-0.004193	 288.342133	 0.974139
 0.010913	 0.001632	 360.741272	 0.982285
 0.010925	 0.007385	 450.086853	 0.990366
 0.010938	 0.013023	 559.088562	 0.998317
 0.010950	 0.018505	 690.306580	 1.006078
 0.010963	 0.023789	 845.865112	 1.013587
 0.010975	 0.028836	 1027.097046	 1.020786
 0.010988	 0.033611	 1234.139404	 1.027620
 0.011000	 0.038078	 1465.523193	 1.034035
 0.011013	 0.042208	 1717.815674	 1.039982
 0.011025	 0.045972	 1985.388794	 1.045418
 0.011038	 0.049345	 2260.387695	 1.050300
 0.011050	 0.052305	 2532.958740	 1.054595
 0.011063	 0.054835	 2791.765625	 1.058272
 0.011075	 0.056919	 3024.780762	 1.061306
 0.011088	 0.058547	 3220.274902	 1.063680
 0.011100	 0.059712	 3367.897217	 1.065380
 0.011113	 0.060412	 3459.687500	 1.066401
 0.011125	 0.060645	 3490.880859	 1.066742
 0.011138	 0.060417	 3460.374756	 1.066409
 0.011150	 0.059735	 3370.788086	 1.065413
 0.011163	 0.058610	 3228.115967	 1.063772
 0.011175	 0.057058	 3041.037109	 1.061509
 0.011188	 0.055096	 2819.998047	 1.058652
 0.011200	 0.052745	 2576.207031	 1.055234
 0.011213	 0.050029	 2320.680420	 1.051293
 0.011225	 0.046975	 2063.448242	 1.046868
 0.011238	 0.043610	 1812.993164	 1.042006
 0.011250	 0.039967	 1575.935425	 1.036753
 0.011263	 0.036077	 1356.957153	 1.031159
 0.011275	 0.031975	 1158.911621	 1.025277
 0.011288	 0.027697	 983.065125	 1.019159
 0.011300	 0.023278	 829.408752	 1.012860
 0.011313	 0.018755	 696.988770	 1.006433
 0.011325	 0.014166	 584.218018	 0.999933
 0.011338	 0.009548	 489.144318	 0.993413
 0.011350	 0.004938	 409.663239	 0.986925
 0.011363	 0.000372	 343.676147	 0.980520
 0.011375	-0.004116	 289.196564	 0.974246
 0.011388	-0.008490	 244.414520	 0.968150
 0.011400	-0.012719	 207.727966	 0.962275
 0.011413	-0.016771	 177.751114	 0.956662
 0.011425	-0.020617	 153.306824	 0.951348
 0.011438	-0.024232	 133.410095	 0.946369
 0.011450	-0.027589	 117.246674	 0.941755
 0.011463	-0.030669	 104.150528	 0.937534
 0.011475	-0.033451	 93.581757	 0.933728
 0.011488	-0.035919	 85.106491	 0.930358
 0.011500	-0.038060	 78.379158	 0.927440
 0.011513	-0.039863	 73.127434	 0.924986
 0.011525	-0.041321	 69.139641	 0.923004
 0.011538	-0.042430	 66.254578	 0.921499
 0.011550	-0.043187	 64.353401	 0.920471
 0.011563	-0.043594	 63.353310	 0.919919
 0.011575	-0.043656	 63.202797	 0.919835
 0.011588	-0.043379	 63.878197	 0.920210
 0.011600	-0.042775	 65.381241	 0.921030
 0.011613	-0.041854	 67.737648	 0.922280
 0.011625	-0.040632	 70.996239	 0.923940
 0.011638	-0.039127	 75.228668	 0.925988
 0.011650	-0.037356	 80.529419	 0.928399
 0.011663	-0.035342	 87.015846	 0.931145
 0.011675	-0.033107	 94.828140	 0.934198
 0.011688	-0.030674	 104.128700	 0.937526
 0.011700	-0.028070	 115.100639	 0.941096
 0.011713	-0.025319	 127.945175	 0.944874
 0.011725	-0.022449	 142.877075	 0.948823
 0.011738	-0.019487	 160.118149	 0.952908
 0.011750	-0.016460	 179.887939	 0.957092
 0.011763	-0.013395	 202.391754	 0.961336
 0.011775	-0.010320	 227.805466	 0.965605
 0.011788	-0.007260	 256.257660	 0.969863
 0.011800	-0.004241	 287.809479	 0.974072
 0.011813	-0.001287	 322.433350	 0.978199
 0.011825	 0.001577	 359.992004	 0.982210
 0.011838	 0.004332	 400.219879	 0.986074
 0.011850	 0.006955	 442.709259	 0.989761
 0.011863	 0.009429	 486.903442	 0.993245
 0.011875	 0.011737	 532.099243	 0.996501
 0.011888	 0.013864	 577.460754	 0.999506
 0.011900	 0.015798	 622.044556	 1.002241
 0.011913	 0.017527	 664.836304	 1.004692
 0.011925	 0.019045	 704.796875	 1.006844
 0.011938	 0.020344	 740.915100	 1.008689
 0.011950	 0.021422	 772.261902	 1.010220
 0.011963	 0.022276	 798.042969	 1.011434
 0.011975	 0.022906	 817.642944	 1.012331
 0.011988	 0.023317	 830.659180	 1.012916
 0.012000	 0.023512	 836.920349	 1.013194
 0.012013	 0.023499	 836.489929	 1.013175
 0.012025	 0.023286	 829.653259	 1.012871
 0.012038	 0.022883	 816.892212	 1.012297
 0.012050	 0.022302	 798.848328	 1.011471
 0.012063	 0.021557	 776.279785	 1.010412
 0.012075	 0.020662	 750.016052	 1.009140
 0.012088	 0.019633	 720.912964	 1.007679
 0.012100	 0.018486	 689.813599	 1.006052
 0.012113	 0.017239	 657.514709	 1.004284
 0.012125	 0.015910	 624.741760	 1.002401
 0.012138	 0.014516	 592.131775	 1.000428
 0.012150	 0.013076	 560.224487	 0.998392
 0.012163	 0.011608	 529.460022	 0.996318
 0.012175	 0.010129	 500.182251	 0.994231
 0.012188	 0.008656	 472.646149	 0.992156
 0.012200	 0.007207	 447.027649	 0.990116
 0.012213	 0.005798	 423.435272	 0.988134
 0.012225	 0.004442	 401.921814	 0.986229
 0.012238	 0.003154	 382.495789	 0.984421
 0.012250	 0.001946	 365.131958	 0.982726
 0.012263	 0.000829	 349.780609	 0.981161
 0.012275	-0.000187	 336.375366	 0.979739
 0.012288	-0.001094	 324.839661	 0.978469
 0.012300	-0.001886	 315.091675	 0.977361
 0.012313	-0.002559	 307.048248	 0.976421
 0.012325	-0.003108	 300.627350	 0.975654
 0.012338	-0.003533	 295.749695	 0.975060
 0.012350	-0.003835	 292.339569	 0.974639
 0.012363	-0.004015	 290.324646	 0.974388
 0.012375	-0.004076	 289.635498	 0.974301
 0.012388	-0.004025	 290.204254	 0.974372
 0.012400	-0.003868	 291.963013	 0.974592
 0.012413	-0.003613	 294.841675	 0.974948
 0.012425	-0.003270	 298.765686	 0.975428
 0.012438	-0.002848	 303.653534	 0.976017
 0.012450	-0.002359	 309.413971	 0.976700
 0.012463	-0.001816	 315.943634	 0.977459
 0.012475	-0.001232	 323.124512	 0.978276
 0.012488	-0.000620	 330.822266	 0.979133
 0.012500	 0.000007	 338.884766	 0.980009
 0.012513	 0.000632	 347.141815	 0.980886
 0.012525	 0.001244	 355.405792	 0.981743
 0.012538	 0.001828	 363.473541	 0.982560
 0.012550	 0.002370	 371.129791	 0.983320
 0.012563	 0.002857	 378.152008	 0.984004
 0.012575	 0.003277	 384.316376	 0.984594
 0.012588	 0.003619	 389.405273	 0.985074
 0.012600	 0.003873	 393.215393	 0.985429
 0.012613	 0.004028	 395.566193	 0.985647
 0.012625	 0.004076	 396.308350	 0.985715
 0.012638	 0.004012	 395.331238	 0.985625
 0.012650	 0.003830	 392.568909	 0.985369
 0.012663	 0.003526	 388.004395	 0.984942
 0.012675	 0.003098	 381.671326	 0.984342
 0.012688	 0.002546	 373.653107	 0.983567
 0.012700	 0.001871	 364.079529	 0.982621
 0.012713	 0.001076	 353.120941	 0.981508
 0.012725	 0.000167	 340.980530	 0.980234
 0.012738	-0.000851	 327.885162	 0.978808
 0.012750	-0.001970	 314.075775	 0.977244
 0.012763	-0.003180	 299.797485	 0.975553
 0.012775	-0.004469	 285.290619	 0.973753
 0.012788	-0.005826	 270.782745	 0.971860
 0.012800	-0.007237	 256.482391	 0.969894
 0.012813	-0.008687	 242.574417	 0.967876
 0.012825	-0.010159	 229.217422	 0.965829
 0.012838	-0.011638	 216.542648	 0.963774
 0.012850	-0.013106	 204.654495	 0.961737
 0.012863	-0.014546	 193.632370	 0.959742
 0.012875	-0.015938	 183.533356	 0.957813
 0.012888	-0.017266	 174.395599	 0.955976
 0.012900	-0.018511	 166.242081	 0.954256
 0.012913	-0.019655	 159.084412	 0.952676
 0.012925	-0.020682	 152.926758	 0.951259
 0.012938	-0.021574	 147.769531	 0.950030
 0.012950	-0.022316	 143.612839	 0.949007
 0.012963	-0.022893	 140.459808	 0.948212
 0.012975	-0.023292	 138.319641	 0.947663
 0.012988	-0.023501	 137.210464	 0.947374
 0.013000	-0.023510	 137.162216	 0.947362
 0.013013	-0.023311	 138.219467	 0.947637
 0.013025	-0.022896	 140.444199	 0.948208
 0.013038	-0.022260	 143.918945	 0.949084
 0.013050	-0.021402	 148.749969	 0.950267
 0.013063	-0.020320	 155.070862	 0.951759
 0.013075	-0.019016	 163.046265	 0.953559
 0.013088	-0.017494	 172.875961	 0.955662
 0.013100	-0.015760	 184.799088	 0.958061
 0.013113	-0.013822	 199.098312	 0.960745
 0.013125	-0.011691	 216.103683	 0.963701
 0.013138	-0.009379	 236.195694	 0.966913
 0.013150	-0.006902	 259.806946	 0.970361
 0.013163	-0.004276	 287.421448	 0.974023
 0.013175	-0.001519	 319.570557	 0.977874
 0.013188	 0.001348	 356.824036	 0.981888
 0.013200	 0.004303	 399.774994	 0.986033
 0.013213	 0.007323	 449.016418	 0.990279
 0.013225	 0.010383	 505.108490	 0.994591
 0.013238	 0.013459	 568.534363	 0.998933
 0.013250	 0.016523	 639.645081	 1.003269
 0.013263	 0.019549	 718.592590	 1.007560
 0.013275	 0.022509	 805.255127	 1.011767
 0.013288	 0.025377	 899.156921	 1.015850
 0.013300	 0.028125	 999.391602	 1.019771
 0.013313	 0.030727	 1104.556396	 1.023489
 0.013325	 0.033155	 1212.710327	 1.026967
 0.013338	 0.035386	 1321.367310	 1.030167
 0.013350	 0.037396	 1427.535156	 1.033053
 0.013363	 0.039161	 1527.811890	 1.035592
 0.013375	 0.040661	 1618.537964	 1.037751
 0.013388	 0.041876	 1696.004028	 1.039503
 0.013400	 0.042790	 1756.697510	 1.040822
 0.013413	 0.043388	 1797.571045	 1.041685
 0.013425	 0.043658	 1816.297485	 1.042074
 0.013438	 0.043589	 1811.488892	 1.041974
 0.013450	 0.043174	 1782.843262	 1.041376
 0.013463	 0.042410	 1731.200928	 1.040274
 0.013475	 0.041295	 1658.497925	 1.038665
 0.013488	 0.039830	 1567.622437	 1.036555
 0.013500	 0.038019	 1462.187256	 1.033950
 0.013513	 0.035871	 1346.250610	 1.030863
 0.013525	 0.033397	 1224.014282	 1.027313
 0.013538	 0.030608	 1099.538452	 1.023320
 0.013550	 0.027523	 976.499023	 1.018910
 0.013563	 0.024159	 858.007629	 1.014115
 0.013575	 0.020540	 746.506836	 1.008967
 0.013588	 0.016689	 643.735291	 1.003504
 0.013600	 0.012633	 550.755188	 0.997766
 0.013613	 0.008401	 468.027008	 0.991797
 0.013625	 0.004024	 395.512360	 0.985642
 0.013638	-0.000465	 332.790283	 0.979349
 0.013650	-0.005033	 279.171997	 0.972966
 0.013663	-0.009644	 233.804565	 0.966545
 0.013675	-0.014262	 195.757706	 0.960135
 0.013688	-0.018850	 164.090973	 0.953788
 0.013700	-0.023370	 137.902252	 0.947554
 0.013713	-0.027787	 116.359001	 0.941484
 0.013725	-0.032062	 98.715858	 0.935627
 0.013738	-0.036160	 84.321526	 0.930030
 0.013750	-0.040045	 72.618225	 0.924739
 0.013763	-0.043683	 63.136272	 0.919798
 0.013775	-0.047041	 55.486012	 0.915249
 0.013788	-0.050089	 49.348515	 0.911130
 0.013800	-0.052798	 44.466244	 0.907477
 0.013813	-0.055141	 40.634312	 0.904323
 0.013825	-0.057094	 37.692791	 0.901698
 0.013838	-0.058638	 35.520237	 0.899626
 0.013850	-0.059753	 34.028603	 0.898130
 0.013863	-0.060426	 33.159470	 0.897229
 0.013875	-0.060645	 32.881687	 0.896936
 0.013888	-0.060402	 33.190422	 0.897262
 0.013900	-0.059693	 34.107670	 0.898211
 0.013913	-0.058518	 35.684429	 0.899787
 0.013925	-0.056880	 38.004654	 0.901985
 0.013938	-0.054787	 41.191498	 0.904800
 0.013950	-0.052248	 45.416119	 0.908218
 0.013963	-0.049279	 50.909752	 0.912223
 0.013975	-0.045898	 57.979889	 0.916796
 0.013988	-0.042127	 67.031258	 0.921910
 0.014000	-0.037989	 78.592842	 0.927536
 0.014013	-0.033515	 93.351852	 0.933641
 0.014025	-0.028734	 112.195610	 0.940185
 0.014038	-0.023682	 136.261841	 0.947126
 0.014050	-0.018393	 166.996887	 0.954419
 0.014063	-0.012908	 206.220093	 0.962012
 0.014075	-0.007267	 256.190002	 0.969853
 0.014088	-0.001512	 319.664703	 0.977885
 0.014100	 0.004314	 399.943970	 0.986049
 0.014113	 0.010165	 500.875854	 0.994282
 0.014125	 0.015996	 626.803711	 1.002522
 0.014138	 0.021762	 782.426147	 1.010703
 0.014150	 0.027417	 972.538940	 1.018760
 0.014163	 0.032917	 1201.633301	 1.026625
 0.014175	 0.038217	 1473.335693	 1.034234
 0.014188	 0.043274	 1789.698120	 1.041520
 0.014200	 0.048048	 2150.382568	 1.048421
 0.014213	 0.052498	 2551.824951	 1.054875
 0.014225	 0.056588	 2986.509277	 1.060824
 0.014238	 0.060282	 3442.516602	 1.066212
 0.014250	 0.063550	 3903.516113	 1.070989
 0.014263	 0.066362	 4349.354492	 1.075108
 0.014275	 0.068693	 4757.293457	 1.078529
 0.014288	 0.070521	 5103.860352	 1.081216
 0.014300	 0.071829	 5367.133789	 1.083140
 0.014313	 0.072602	 5529.148926	 1.084278
 0.014325	 0.072831	 5578.048828	 1.084615
 0.014338	 0.072510	 5509.610840	 1.084143
 0.014350	 0.071638	 5327.850098	 1.082859
 0.014363	 0.070217	 5044.588379	 1.080769
 0.014375	 0.068256	 4678.049316	 1.077888
 0.014388	 0.065765	 4250.725586	 1.074234
 0.014400	 0.062761	 3786.914307	 1.069835
 0.014413	 0.059264	 3310.286621	 1.064726
 0.014425	 0.055297	 2841.865723	 1.058945
 0.014438	 0.050888	 2398.631104	 1.052539
 0.014450	 0.046069	 1992.827515	 1.045558
 0.014463	 0.040875	 1631.936768	 1.038060
 0.014475	 0.035343	 1319.160278	 1.030105
 0.014488	 0.029514	 1054.224487	 1.021755
 0.014500	 0.023431	 834.320740	 1.013078
 0.014513	 0.017141	 655.023682	 1.004144
 0.014525	 0.010689	 511.087891	 0.995022
 0.014538	 0.004126	 397.067291	 0.985785
 0.014550	-0.002499	 307.748749	 0.976504
 0.014563	-0.009136	 238.417191	 0.967251
 0.014575	-0.015733	 184.985886	 0.958097
 0.014588	-0.022240	 144.028488	 0.949111
 0.014600	-0.028607	 112.747734	 0.940360
 0.014613	-0.034783	 88.908356	 0.931909
 0.014625	-0.040721	 70.754944	 0.923820
 0.014638	-0.046374	 56.928078	 0.916151
 0.014650	-0.051698	 46.386707	 0.908959
 0.014663	-0.056651	 38.340641	 0.902293
 0.014675	-0.061194	 32.194336	 0.896201
 0.014688	-0.065290	 27.501598	 0.890725
 0.014700	-0.068907	 23.930006	 0.885904
 0.014713	-0.072016	 21.233479	 0.881771
 0.014725	-0.074590	 19.231604	 0.878356
 0.014738	-0.076610	 17.794262	 0.875681
 0.014750	-0.078058	 16.830513	 0.873766
 0.014763	-0.078921	 16.280844	 0.872625
 0.014775	-0.079192	 16.112106	 0.872267
 0.014788	-0.078867	 16.314764	 0.872696
 0.014800	-0.077947	 16.902142	 0.873912
 0.014813	-0.076439	 17.911743	 0.875907
 0.014825	-0.074352	 19.408623	 0.878671
 0.014838	-0.071702	 21.491295	 0.882188
 0.014850	-0.068508	 24.300665	 0.886436
 0.014863	-0.064793	 28.032829	 0.891389
 0.014875	-0.060585	 32.956909	 0.897016
 0.014888	-0.055917	 39.439316	 0.903280
 0.014900	-0.050822	 47.976448	 0.910140
 0.014913	-0.045340	 59.237820	 0.917552
 0.014925	-0.039512	 74.122101	 0.925464
 0.014938	-0.033383	 93.828362	 0.933822
 0.014950	-0.026998	 119.944077	 0.942567
 0.014963	-0.020407	 154.549820	 0.951638
 0.014975	-0.013661	 200.337814	 0.960969
 0.014988	-0.006809	 260.736237	 0.970490
 0.015000	 0.000094	 340.023743	 0.980131
 0.015013	 0.006996	 443.409668	 0.989819
 0.015025	 0.013845	 577.042480	 0.999479
 0.015038	 0.020588	 747.898865	 1.009036
 0.015050	 0.027174	 963.496338	 1.018413
 0.015063	 0.033552	 1231.373535	 1.027536
 0.015075	 0.039674	 1558.295166	 1.036331
 0.015088	 0.045494	 1949.176758	 1.044726
 0.015100	 0.050966	 2405.778076	 1.052651
 0.015113	 0.056049	 2925.293945	 1.060040
 0.015125	 0.060706	 3499.056885	 1.066831
 0.015138	 0.064900	 4111.628418	 1.072966
 0.015150	 0.068601	 4740.592773	 1.078395
 0.015163	 0.071781	 5357.308594	 1.083070
 0.015175	 0.074416	 5928.750488	 1.086951
 0.015188	 0.076487	 6420.383789	 1.090008
 0.015200	 0.077980	 6799.737793	 1.092212
 0.015213	 0.078884	 7040.196777	 1.093548
 0.015225	 0.079192	 7124.314453	 1.094005
 0.015238	 0.078905	 7046.104492	 1.093580
 0.015250	 0.078026	 6811.796387	 1.092281
 0.015263	 0.076563	 6438.976562	 1.090119
 0.015275	 0.074528	 5954.232910	 1.087116
 0.015288	 0.071938	 5389.807129	 1.083301
 0.015300	 0.068816	 4779.862305	 1.078710
 0.015313	 0.065185	 4156.964844	 1.073384
 0.015325	 0.061077	 3549.319336	 1.067372
 0.015338	 0.056522	 2979.003418	 1.060729
 0.015350	 0.051559	 2461.273193	 1.053511
 0.015363	 0.046225	 2004.787109	 1.045783
 0.015375	 0.040563	 1612.497559	 1.037611
 0.015388	 0.034618	 1282.906250	 1.029065
 0.015400	 0.028436	 1011.423096	 1.020215
 0.015413	 0.022066	 791.621460	 1.011135
 0.015425	 0.015555	 616.276123	 1.001899
 0.015438	 0.008956	 478.131348	 0.992579
 0.015450	 0.002319	 370.409790	 0.983250
 0.015463	-0.004305	 287.098969	 0.973982
 0.015475	-0.010866	 223.069366	 0.964846
 0.015488	-0.017314	 174.076721	 0.955911
 0.015500	-0.023599	 136.693741	 0.947239
 0.015513	-0.029676	 108.206551	 0.938895
 0.015525	-0.035497	 86.499641	 0.930934
 0.015538	-0.041020	 69.944366	 0.923413
 0.015550	-0.046205	 57.299171	 0.916380
 0.015563	-0.051013	 47.624790	 0.909882
 0.015575	-0.055411	 40.214848	 0.903960
 0.015588	-0.059365	 34.540714	 0.898651
 0.015600	-0.062849	 30.208553	 0.893986
 0.015613	-0.065840	 26.926558	 0.889992
 0.015625	-0.068316	 24.480402	 0.886691
 0.015638	-0.070263	 22.714317	 0.884101
 0.015650	-0.071668	 21.518896	 0.882232
 0.015663	-0.072526	 20.820915	 0.881094
 0.015675	-0.072832	 20.577257	 0.880688
 0.015688	-0.072588	 20.771078	 0.881011
 0.015700	-0.071800	 21.410105	 0.882057
 0.015713	-0.070478	 22.526880	 0.883814
 0.015725	-0.068636	 24.180832	 0.886265
 0.015738	-0.066292	 26.462362	 0.889389
 0.015750	-0.063467	 29.499134	 0.893160
 0.015763	-0.060188	 33.464836	 0.897548
 0.015775	-0.056482	 38.591053	 0.902520
 0.015788	-0.052382	 45.182507	 0.908037
 0.015800	-0.047923	 53.636436	 0.914056
 0.015813	-0.043141	 64.466339	 0.920533
 0.015825	-0.038076	 78.330307	 0.927418
 0.015838	-0.032770	 96.063705	 0.934658
 0.015850	-0.027266	 118.714668	 0.942199
 0.015863	-0.021607	 147.580154	 0.949984
 0.015875	-0.015839	 184.238007	 0.957951
 0.015888	-0.010006	 230.568314	 0.966041
 0.015900	-0.004156	 288.754608	 0.974191
 0.015913	 0.001668	 361.252991	 0.982337
 0.015925	 0.007421	 450.714996	 0.990417
 0.015938	 0.013059	 559.850220	 0.998367
 0.015950	 0.018539	 691.216858	 1.006127
 0.015963	 0.023822	 846.935547	 1.013634
 0.015975	 0.028867	 1028.332642	 1.020831
 0.015988	 0.033640	 1235.536377	 1.027662
 0.016000	 0.038106	 1467.066162	 1.034074
 0.016013	 0.042233	 1719.475952	 1.040019
 0.016025	 0.045995	 1987.123657	 1.045451
 0.016038	 0.049365	 2262.140137	 1.050330
 0.016050	 0.052323	 2534.660400	 1.054620
 0.016063	 0.054849	 2793.341553	 1.058293
 0.016075	 0.056931	 3026.154053	 1.061323
 0.016088	 0.058556	 3221.375244	 1.063693
 0.016100	 0.059718	 3368.664062	 1.065389
 0.016113	 0.060415	 3460.080322	 1.066405
 0.016125	 0.060645	 3490.880859	 1.066742
 0.016138	 0.060414	 3459.987061	 1.066404
 0.016150	 0.059729	 3370.041016	 1.065404
 0.016163	 0.058602	 3227.055908	 1.063760
 0.016175	 0.057047	 3039.727051	 1.061493
 0.016188	 0.055082	 2818.507568	 1.058632
 0.016200	 0.052729	 2574.608154	 1.055211
 0.016213	 0.050011	 2319.040039	 1.051266
 0.016225	 0.046954	 2061.826172	 1.046839
 0.016238	 0.043588	 1811.437500	 1.041973
 0.016250	 0.039943	 1574.481934	 1.036718
 0.016263	 0.036052	 1355.629761	 1.031123
 0.016275	 0.031949	 1157.722656	 1.025239
 0.016288	 0.027669	 982.018555	 1.019120
 0.016300	 0.023249	 828.501038	 1.012819
 0.016313	 0.018726	 696.211548	 1.006392
 0.016325	 0.014137	 583.559814	 0.999892
 0.016338	 0.009519	 488.591919	 0.993372
 0.016350	 0.004909	 409.203217	 0.986884
 0.016363	 0.000343	 343.295410	 0.980480
 0.016375	-0.004144	 288.882996	 0.974207
 0.016388	-0.008518	 244.157242	 0.968112
 0.016400	-0.012745	 207.517517	 0.962238
 0.016413	-0.016796	 177.579346	 0.956627
 0.016425	-0.020641	 153.166885	 0.951316
 0.016438	-0.024254	 133.296295	 0.946339
 0.016450	-0.027610	 117.154343	 0.941727
 0.016463	-0.030688	 104.075851	 0.937508
 0.016475	-0.033468	 93.521660	 0.933705
 0.016488	-0.035934	 85.058502	 0.930338
 0.016500	-0.038073	 78.341354	 0.927423
 0.016513	-0.039874	 73.098282	 0.924972
 0.016525	-0.041329	 69.117958	 0.922993
 0.016538	-0.042435	 66.239487	 0.921491
 0.016550	-0.043190	 64.344261	 0.920466
 0.016563	-0.043595	 63.349709	 0.919917
 0.016575	-0.043655	 63.204502	 0.919836
 0.016588	-0.043376	 63.885117	 0.920214
 0.016600	-0.042770	 65.393494	 0.921037
 0.016613	-0.041847	 67.755463	 0.922290
 0.016625	-0.040624	 71.019989	 0.923952
 0.016638	-0.039116	 75.258888	 0.926002
 0.016650	-0.037344	 80.566772	 0.928415
 0.016663	-0.035329	 87.061180	 0.931164
 0.016675	-0.033092	 94.882393	 0.934219
 0.016688	-0.030658	 104.192978	 0.937548
 0.016700	-0.028053	 115.176178	 0.941120
 0.016713	-0.025301	 128.033295	 0.944898
 0.016725	-0.022430	 142.979187	 0.948849
 0.016738	-0.019468	 160.235626	 0.952934
 0.016750	-0.016441	 180.022202	 0.957118
 0.016763	-0.013376	 202.543991	 0.961363
 0.016775	-0.010300	 227.976685	 0.965633
 0.016788	-0.007241	 256.448456	 0.969889
 0.016800	-0.004222	 288.020020	 0.974098
 0.016813	-0.001269	 322.663116	 0.978224
 0.016825	 0.001595	 360.239716	 0.982235
 0.016838	 0.004349	 400.483429	 0.986098
 0.016850	 0.006971	 442.985565	 0.989784
 0.016863	 0.009444	 487.188477	 0.993267
 0.016875	 0.011751	 532.388123	 0.996520
 0.016888	 0.013877	 577.747742	 0.999524
 0.016900	 0.015809	 622.323425	 1.002258
 0.016913	 0.017538	 665.100403	 1.004707
 0.016925	 0.019054	 705.039673	 1.006857
 0.016938	 0.020352	 741.130371	 1.008700
 0.016950	 0.021428	 772.444214	 1.010229
 0.016963	 0.022280	 798.187683	 1.011441
 0.016975	 0.022910	 817.746826	 1.012336
 0.016988	 0.023319	 830.720398	 1.012918
 0.017000	 0.023513	 836.938599	 1.013194
 0.017013	 0.023498	 836.466248	 1.013174
 0.017025	 0.023284	 829.590210	 1.012868
 0.017038	 0.022879	 816.793457	 1.012293
 0.017050	 0.022298	 798.718262	 1.011465
 0.017063	 0.021551	 776.123596	 1.010404
 0.017075	 0.020656	 749.838989	 1.009131
 0.017088	 0.019626	 720.720581	 1.007669
 0.017100	 0.018479	 689.611145	 1.006041
 0.017113	 0.017231	 657.307068	 1.004272
 0.017125	 0.015901	 624.533264	 1.002388
 0.017138	 0.014507	 591.926147	 1.000415
 0.017150	 0.013067	 560.024841	 0.998379
 0.017163	 0.011598	 529.268860	 0.996305
 0.017175	 0.010119	 500.001434	 0.994218
 0.017188	 0.008647	 472.477051	 0.992143
 0.017200	 0.007198	 446.871155	 0.990104
 0.017213	 0.005789	 423.291870	 0.988121
 0.017225	 0.004434	 401.791687	 0.986217
 0.017238	 0.003146	 382.378906	 0.984409
 0.017250	 0.001939	 365.028046	 0.982716
 0.017263	 0.000823	 349.689301	 0.981152
 0.017275	-0.000193	 336.296204	 0.979730
 0.017288	-0.001099	 324.772095	 0.978461
 0.017300	-0.001891	 315.035248	 0.977355
 0.017313	-0.002562	 307.002380	 0.976416
 0.017325	-0.003111	 300.591553	 0.975649
 0.017338	-0.003536	 295.723450	 0.975056
 0.017350	-0.003836	 292.322418	 0.974636
 0.017363	-0.004015	 290.316162	 0.974386
 0.017375	-0.004076	 289.635223	 0.974301
 0.017388	-0.004025	 290.211761	 0.974373
 0.017400	-0.003867	 291.977844	 0.974594
 0.017413	-0.003611	 294.863403	 0.974951
 0.017425	-0.003267	 298.793823	 0.975431
 0.017438	-0.002845	 303.687500	 0.976021
 0.017450	-0.002356	 309.453186	 0.976705
 0.017463	-0.001812	 315.987366	 0.977464
 0.017475	-0.001228	 323.171997	 0.978282
 0.017488	-0.000616	 330.872559	 0.979138
 0.017500	 0.000010	 338.936859	 0.980015
 0.017513	 0.000636	 347.194550	 0.980891
 0.017525	 0.001248	 355.457916	 0.981748
 0.017538	 0.001831	 363.523743	 0.982565
 0.017550	 0.002373	 371.176697	 0.983325
 0.017563	 0.002860	 378.194153	 0.984008
 0.017575	 0.003280	 384.352356	 0.984597
 0.017588	 0.003621	 389.433746	 0.985076
 0.017600	 0.003874	 393.235138	 0.985431
 0.017613	 0.004028	 395.576141	 0.985648
 0.017625	 0.004076	 396.307678	 0.985715
 0.017638	 0.004011	 395.319366	 0.985624
 0.017650	 0.003828	 392.545563	 0.985367
 0.017663	 0.003523	 387.969666	 0.984939
 0.017675	 0.003095	 381.625549	 0.984337
 0.017688	 0.002542	 373.596985	 0.983562
 0.017700	 0.001866	 364.014038	 0.982615
 0.017713	 0.001071	 353.047272	 0.981500
 0.017725	 0.000161	 340.900024	 0.980225
 0.017738	-0.000858	 327.799347	 0.978799
 0.017750	-0.001978	 313.986206	 0.977233
 0.017763	-0.003188	 299.705719	 0.975542
 0.017775	-0.004478	 285.198151	 0.973741
 0.017788	-0.005835	 270.690948	 0.971848
 0.017800	-0.007246	 256.392517	 0.969882
 0.017813	-0.008696	 242.487595	 0.967864
 0.017825	-0.010169	 229.134552	 0.965816
 0.017838	-0.011648	 216.464462	 0.963761
 0.017850	-0.013116	 204.581589	 0.961724
 0.017863	-0.014555	 193.565186	 0.959729
 0.017875	-0.015947	 183.472168	 0.957801
 0.017888	-0.017274	 174.340637	 0.955965
 0.017900	-0.018519	 166.193420	 0.954245
 0.017913	-0.019662	 159.042099	 0.952666
 0.017925	-0.020688	 152.890808	 0.951251
 0.017938	-0.021579	 147.739944	 0.950022
 0.017950	-0.022320	 143.589615	 0.949001
 0.017963	-0.022896	 140.442993	 0.948208
 0.017975	-0.023294	 138.309296	 0.947660
 0.017988	-0.023502	 137.206757	 0.947373
 0.018000	-0.023510	 137.165390	 0.947363
 0.018013	-0.023309	 138.229843	 0.947639
 0.018025	-0.022892	 140.462234	 0.948213
 0.018038	-0.022255	 143.945251	 0.949090
 0.018050	-0.021396	 148.785294	 0.950275
 0.018063	-0.020312	 155.116150	 0.951769
 0.018075	-0.019007	 163.102676	 0.953571
 0.018088	-0.017483	 172.944885	 0.955676
 0.018100	-0.015748	 184.882187	 0.958077
 0.018113	-0.013809	 199.197525	 0.960763
 0.018125	-0.011677	 216.221252	 0.963721
 0.018138	-0.009364	 236.334229	 0.966934
 0.018150	-0.006886	 259.969360	 0.970383
 0.018163	-0.004259	 287.610992	 0.974047
 0.018175	-0.001501	 319.790680	 0.977899
 0.018188	 0.001366	 357.078522	 0.981914
 0.018200	 0.004322	 400.067596	 0.986060
 0.018213	 0.007342	 449.350891	 0.990306
 0.018225	 0.010403	 505.488129	 0.994618
 0.018238	 0.013478	 568.961975	 0.998961
 0.018250	 0.016542	 640.122253	 1.003296
 0.018263	 0.019568	 719.119568	 1.007587
 0.018275	 0.022528	 805.830078	 1.011793
 0.018288	 0.025395	 899.775513	 1.015876
 0.018300	 0.028142	 1000.046448	 1.019795
 0.018313	 0.030743	 1105.236938	 1.023512
 0.018325	 0.033170	 1213.402588	 1.026988
 0.018338	 0.035400	 1322.053589	 1.030186
 0.018350	 0.037408	 1428.195190	 1.033070
 0.018363	 0.039171	 1528.422974	 1.035607
 0.018375	 0.040669	 1619.076294	 1.037764
 0.018388	 0.041883	 1696.446411	 1.039513
 0.018400	 0.042795	 1757.023071	 1.040829
 0.018413	 0.043391	 1797.762085	 1.041689
 0.018425	 0.043658	 1816.342041	 1.042075
 0.018438	 0.043587	 1811.381714	 1.041972
 0.018450	 0.043171	 1782.586060	 1.041371
 0.018463	 0.042404	 1730.802612	 1.040265
 0.018475	 0.041286	 1657.973999	 1.038653
 0.018488	 0.039819	 1566.993896	 1.036540
 0.018500	 0.038007	 1461.478882	 1.033932
 0.018513	 0.035857	 1345.488770	 1.030842
 0.018525	 0.033380	 1223.225586	 1.027289
 0.018538	 0.030589	 1098.747925	 1.023293
 0.018550	 0.027502	 975.728149	 1.018881
 0.018563	 0.024137	 857.274353	 1.014083
 0.018575	 0.020516	 745.824341	 1.008933
 0.018588	 0.016664	 643.112305	 1.003468
 0.018600	 0.012607	 550.196594	 0.997729
 0.018613	 0.008374	 467.533905	 0.991758
 0.018625	 0.003996	 395.083191	 0.985602
 0.018638	-0.000494	 332.421417	 0.979308
 0.018650	-0.005062	 278.858398	 0.972926
 0.018663	-0.009673	 233.540527	 0.966504
 0.018675	-0.014291	 195.537186	 0.960095
 0.018688	-0.018879	 163.908081	 0.953748
 0.018700	-0.023399	 137.751419	 0.947515
 0.018713	-0.027815	 116.235229	 0.941446
 0.018725	-0.032089	 98.614708	 0.935590
 0.018738	-0.036186	 84.239159	 0.929995
 0.018750	-0.040069	 72.551361	 0.924706
 0.018763	-0.043705	 63.082211	 0.919768
 0.018775	-0.047062	 55.442509	 0.915221
 0.018788	-0.050107	 49.313744	 0.911105
 0.018800	-0.052814	 44.438747	 0.907455
 0.018813	-0.055154	 40.612946	 0.904305
 0.018825	-0.057106	 37.676659	 0.901683
 0.018838	-0.058646	 35.508678	 0.899615
 0.018850	-0.059759	 34.021160	 0.898123
 0.018863	-0.060429	 33.155853	 0.897225
 0.018875	-0.060645	 32.881790	 0.896936
 0.018888	-0.060399	 33.194294	 0.897266
 0.018900	-0.059687	 34.115543	 0.898219
 0.018913	-0.058509	 35.696720	 0.899799
 0.018925	-0.056868	 38.022030	 0.902001
 0.018938	-0.054772	 41.214870	 0.904819
 0.018950	-0.052231	 45.446758	 0.908241
 0.018963	-0.049259	 50.949360	 0.912251
 0.018975	-0.045875	 58.030704	 0.916827
 0.018988	-0.042101	 67.096214	 0.921944
 0.019000	-0.037962	 78.675766	 0.927574
 0.019013	-0.033485	 93.457703	 0.933681
 0.019025	-0.028703	 112.330780	 0.940228
 0.019038	-0.023649	 136.434479	 0.947171
 0.019050	-0.018359	 167.217331	 0.954466
 0.019063	-0.012873	 206.501236	 0.962061
 0.019075	-0.007230	 256.547760	 0.969903
 0.019088	-0.001475	 320.118286	 0.977937
 0.019100	 0.004351	 400.516174	 0.986101
 0.019113	 0.010202	 501.592773	 0.994335
 0.019125	 0.016033	 627.694336	 1.002574
 0.019138	 0.021798	 783.520996	 1.010755
 0.019150	 0.027453	 973.868103	 1.018810
 0.019163	 0.032951	 1203.223145	 1.026674
 0.019175	 0.038250	 1475.205200	 1.034281
 0.019188	 0.043305	 1791.853394	 1.041565
 0.019200	 0.048077	 2152.812012	 1.048464
 0.019213	 0.052525	 2554.494385	 1.054915
 0.019225	 0.056612	 2989.356689	 1.060860
 0.019238	 0.060304	 3445.451660	 1.066244
 0.019250	 0.063569	 3906.422119	 1.071017
 0.019263	 0.066378	 4352.093750	 1.075132
 0.019275	 0.068706	 4759.714844	 1.078548
 0.019288	 0.070531	 5105.818848	 1.081231
 0.019300	 0.071835	 5368.500000	 1.083149
 0.019313	 0.072605	 5529.825195	 1.084283
 0.019325	 0.072830	 5577.984863	 1.084615
 0.019338	 0.072506	 5508.804199	 1.084137
 0.019350	 0.071630	 5326.352539	 1.082848
 0.019363	 0.070206	 5042.500000	 1.080753
 0.019375	 0.068242	 4675.499023	 1.077867
 0.019388	 0.065748	 4247.866699	 1.074208
 0.019400	 0.062741	 3783.899902	 1.069805
 0.019413	 0.059240	 3307.261475	 1.064691
 0.019425	 0.055270	 2838.952148	 1.058906
 0.019438	 0.050859	 2395.921875	 1.052496
 0.019450	 0.046038	 1990.385132	 1.045512
 0.019463	 0.040841	 1629.794678	 1.038011
 0.019475	 0.035307	 1317.326294	 1.030053
 0.019488	 0.029476	 1052.688110	 1.021701
 0.019500	 0.023392	 833.057617	 1.013022
 0.019513	 0.017100	 654.002502	 1.004086
 0.019525	 0.010648	 510.274078	 0.994964
 0.019538	 0.004084	 396.426605	 0.985726
 0.019550	-0.002542	 307.249420	 0.976445
 0.019563	-0.009178	 238.031174	 0.967193
 0.019575	-0.015775	 184.689316	 0.958039
 0.019588	-0.022281	 143.801666	 0.949054
 0.019600	-0.028647	 112.574738	 0.940305
 0.019613	-0.034821	 88.776588	 0.931856
 0.019625	-0.040758	 70.654610	 0.923770
 0.019638	-0.046409	 56.851627	 0.916104
 0.019650	-0.051731	 46.328388	 0.908915
 0.019663	-0.056682	 38.296101	 0.902252
 0.019675	-0.061222	 32.160309	 0.896164
 0.019688	-0.065315	 27.475651	 0.890692
 0.019700	-0.068929	 23.910320	 0.885876
 0.019713	-0.072034	 21.218718	 0.881747
 0.019725	-0.074605	 19.220798	 0.878336
 0.019738	-0.076621	 17.786716	 0.875666
 0.019750	-0.078065	 16.825758	 0.873756
 0.019763	-0.078925	 16.278589	 0.872620
 0.019775	-0.079192	 16.112223	 0.872267
 0.019788	-0.078863	 16.317255	 0.872702
 0.019800	-0.077939	 16.907175	 0.873922
 0.019813	-0.076427	 17.919640	 0.875922
 0.019825	-0.074337	 19.419888	 0.878691
 0.019838	-0.071683	 21.506689	 0.882213
 0.019850	-0.068486	 24.321238	 0.886465
 0.019863	-0.064768	 28.060043	 0.891423
 0.019875	-0.060557	 32.992756	 0.897054
 0.019888	-0.055886	 39.486504	 0.903322
 0.019900	-0.050789	 48.038635	 0.910186
 0.019913	-0.045304	 59.319920	 0.917601
 0.019925	-0.039474	 74.230713	 0.925515
 0.019938	-0.033343	 93.972252	 0.933876
 0.019950	-0.026957	 120.134796	 0.942624
 0.019963	-0.020365	 154.802414	 0.951697
 0.019975	-0.013617	 200.671646	 0.961029
 0.019988	-0.006766	 261.175690	 0.970551
