TBJ_JFET  
Vin = 0.03*sen(2*PI*1000.0*t) + 0.03*sen(2*PI*1200.0*t)
Is = 1.00e-11  Idss = 2.00
Vt = 0.026     Vp   = -2.00
Tensiones de polarizaci√≥n
Vbe = 0.900
Vgs = -0.600

t [s]   	Vin [V] 	Ic [mA] 	Id [mA] 	
 0.000000	 0.000000	 10796.190430	 0.980000
 0.000025	 0.008595	 15026.046875	 0.992070
 0.000050	 0.016929	 20703.244141	 1.003843
 0.000075	 0.024745	 27964.615234	 1.014950
 0.000100	 0.031808	 36693.109375	 1.025038
 0.000125	 0.037903	 46386.281250	 1.033783
 0.000150	 0.042846	 56099.074219	 1.040902
 0.000175	 0.046490	 64538.347656	 1.046166
 0.000200	 0.048727	 70337.937500	 1.049405
 0.000225	 0.049495	 72446.625000	 1.050518
 0.000250	 0.048776	 70471.593750	 1.049477
 0.000275	 0.046600	 64812.429688	 1.046326
 0.000300	 0.043039	 56517.531250	 1.041181
 0.000325	 0.038211	 46938.621094	 1.034225
 0.000350	 0.032269	 37349.617188	 1.025698
 0.000375	 0.025403	 28681.142578	 1.015887
 0.000400	 0.017828	 21432.091797	 1.005118
 0.000425	 0.009780	 15726.592773	 0.993740
 0.000450	 0.001508	 11441.036133	 0.982113
 0.000475	-0.006733	 8332.925781	 0.970596
 0.000500	-0.014694	 6135.073242	 0.959536
 0.000525	-0.022135	 4608.260742	 0.949256
 0.000550	-0.028833	 3561.612549	 0.940049
 0.000575	-0.034594	 2853.804199	 0.932167
 0.000600	-0.039252	 2385.746338	 0.925818
 0.000625	-0.042678	 2091.218750	 0.921162
 0.000650	-0.044783	 1928.585327	 0.918307
 0.000675	-0.045520	 1874.684570	 0.917309
 0.000700	-0.044885	 1921.028687	 0.918169
 0.000725	-0.042916	 2072.093018	 0.920838
 0.000750	-0.039695	 2345.440186	 0.925215
 0.000775	-0.035337	 2773.430664	 0.931153
 0.000800	-0.029994	 3406.159180	 0.938459
 0.000825	-0.023845	 4314.900879	 0.946901
 0.000850	-0.017092	 5594.579102	 0.956217
 0.000875	-0.009952	 7362.557617	 0.966116
 0.000900	-0.002651	 9749.660156	 0.976292
 0.000925	 0.004586	 12878.565430	 0.986430
 0.000950	 0.011537	 16826.125000	 0.996219
 0.000975	 0.017997	 21571.472656	 1.005357
 0.001000	 0.023776	 26941.425781	 1.013569
 0.001025	 0.028714	 32575.564453	 1.020611
 0.001050	 0.032676	 37938.324219	 1.026280
 0.001075	 0.035564	 42395.804688	 1.030422
 0.001100	 0.037315	 45349.347656	 1.032938
 0.001125	 0.037903	 46386.320312	 1.033783
 0.001150	 0.037339	 45391.031250	 1.032972
 0.001175	 0.035671	 42570.105469	 1.030576
 0.001200	 0.032980	 38384.066406	 1.026715
 0.001225	 0.029377	 33417.367188	 1.021559
 0.001250	 0.025000	 28240.054688	 1.015313
 0.001275	 0.020008	 23306.455078	 1.008211
 0.001300	 0.014574	 18910.498047	 1.000509
 0.001325	 0.008880	 15191.341797	 0.992471
 0.001350	 0.003112	 12168.976562	 0.984362
 0.001375	-0.002547	 9788.583008	 0.976437
 0.001400	-0.007926	 7959.442383	 0.968935
 0.001425	-0.012864	 6582.438965	 0.962072
 0.001450	-0.017225	 5566.103516	 0.956033
 0.001475	-0.020892	 4833.951172	 0.950970
 0.001500	-0.023776	 4326.346191	 0.946996
 0.001525	-0.025818	 3999.534668	 0.944188
 0.001550	-0.026988	 3823.574707	 0.942581
 0.001575	-0.027285	 3780.120605	 0.942173
 0.001600	-0.026739	 3860.463379	 0.942923
 0.001625	-0.025403	 4063.908691	 0.944758
 0.001650	-0.023359	 4396.334473	 0.947570
 0.001675	-0.020706	 4868.670898	 0.951226
 0.001700	-0.017559	 5494.942383	 0.955571
 0.001725	-0.014048	 6289.502441	 0.960431
 0.001750	-0.010306	 7263.180176	 0.965625
 0.001775	-0.006468	 8418.306641	 0.970965
 0.001800	-0.002669	 9743.048828	 0.976268
 0.001825	 0.000969	 11206.086914	 0.981357
 0.001850	 0.004331	 12753.240234	 0.986073
 0.001875	 0.007322	 14307.859375	 0.990278
 0.001900	 0.009862	 15776.345703	 0.993856
 0.001925	 0.011894	 17058.892578	 0.996723
 0.001950	 0.013383	 18063.792969	 0.998825
 0.001975	 0.014313	 18722.083984	 1.000141
 0.002000	 0.014695	 18998.705078	 1.000680
 0.002025	 0.014555	 18897.246094	 1.000484
 0.002050	 0.013943	 18457.193359	 0.999617
 0.002075	 0.012920	 17745.011719	 0.998171
 0.002100	 0.011562	 16841.847656	 0.996253
 0.002125	 0.009952	 15831.177734	 0.993983
 0.002150	 0.008182	 14788.941406	 0.991488
 0.002175	 0.006340	 13777.448242	 0.988896
 0.002200	 0.004514	 12843.050781	 0.986330
 0.002225	 0.002785	 12016.740234	 0.983903
 0.002250	 0.001224	 11316.512695	 0.981714
 0.002275	-0.000110	 10750.416016	 0.979845
 0.002300	-0.001174	 10319.500000	 0.978357
 0.002325	-0.001939	 10020.211914	 0.977287
 0.002350	-0.002395	 9846.047852	 0.976650
 0.002375	-0.002548	 9788.446289	 0.976436
 0.002400	-0.002419	 9837.005859	 0.976616
 0.002425	-0.002046	 9979.184570	 0.977138
 0.002450	-0.001478	 10199.664062	 0.977932
 0.002475	-0.000774	 10479.611328	 0.978917
 0.002500	-0.000000	 10796.131836	 0.980000
 0.002525	 0.000774	 11122.216797	 0.981083
 0.002550	 0.001478	 11427.501953	 0.982070
 0.002575	 0.002046	 11680.006836	 0.982866
 0.002600	 0.002419	 11848.860352	 0.983389
 0.002625	 0.002548	 11907.684570	 0.983570
 0.002650	 0.002395	 11838.070312	 0.983356
 0.002675	 0.001940	 11632.360352	 0.982717
 0.002700	 0.001174	 11295.043945	 0.981645
 0.002725	 0.000111	 10842.339844	 0.980155
 0.002750	-0.001223	 10299.999023	 0.978288
 0.002775	-0.002784	 9699.833984	 0.976106
 0.002800	-0.004513	 9075.772461	 0.973692
 0.002825	-0.006339	 8460.252930	 0.971145
 0.002850	-0.008181	 7881.609375	 0.968580
 0.002875	-0.009952	 7362.716797	 0.966117
 0.002900	-0.011561	 6920.864258	 0.963881
 0.002925	-0.012919	 6568.587402	 0.961996
 0.002950	-0.013942	 6315.102051	 0.960578
 0.002975	-0.014555	 6168.006836	 0.959729
 0.003000	-0.014695	 6135.024902	 0.959535
 0.003025	-0.014314	 6225.625000	 0.960064
 0.003050	-0.013383	 6452.452637	 0.961353
 0.003075	-0.011895	 6832.500000	 0.963418
 0.003100	-0.009863	 7387.897461	 0.966240
 0.003125	-0.007323	 8146.099609	 0.969775
 0.003150	-0.004333	 9139.055664	 0.973944
 0.003175	-0.000970	 10400.781250	 0.978642
 0.003200	 0.002667	 11962.548828	 0.983738
 0.003225	 0.006467	 13845.008789	 0.989075
 0.003250	 0.010304	 16046.906250	 0.994479
 0.003275	 0.014047	 18531.169922	 0.999764
 0.003300	 0.017558	 21210.835938	 1.004736
 0.003325	 0.020705	 23939.390625	 1.009201
 0.003350	 0.023358	 26511.609375	 1.012974
 0.003375	 0.025403	 28680.507812	 1.015886
 0.003400	 0.026738	 30192.279297	 1.017791
 0.003425	 0.027285	 30834.337891	 1.018572
 0.003450	 0.026988	 30484.273438	 1.018148
 0.003475	 0.025819	 29143.470703	 1.016480
 0.003500	 0.023777	 26942.298828	 1.013571
 0.003525	 0.020893	 24113.406250	 1.009468
 0.003550	 0.017226	 20941.798828	 1.004265
 0.003575	 0.012866	 17708.519531	 0.998095
 0.003600	 0.007928	 14645.005859	 0.991130
 0.003625	 0.002549	 11908.431641	 0.983572
 0.003650	-0.003110	 9579.029297	 0.975651
 0.003675	-0.008878	 7673.253418	 0.967611
 0.003700	-0.014572	 6164.128418	 0.959706
 0.003725	-0.020006	 5001.454102	 0.952192
 0.003750	-0.024999	 4127.659180	 0.945314
 0.003775	-0.029375	 3488.132324	 0.939306
 0.003800	-0.032979	 3036.750488	 0.934374
 0.003825	-0.035670	 2738.101318	 0.930698
 0.003850	-0.037339	 2567.898193	 0.928423
 0.003875	-0.037903	 2512.760498	 0.927654
 0.003900	-0.037316	 2570.176758	 0.928454
 0.003925	-0.035565	 2749.186279	 0.930841
 0.003950	-0.032677	 3072.148682	 0.934786
 0.003975	-0.028715	 3577.851318	 0.940211
 0.004000	-0.023778	 4326.016113	 0.946993
 0.004025	-0.017999	 5402.864746	 0.954964
 0.004050	-0.011540	 6926.533203	 0.963911
 0.004075	-0.004588	 9049.610352	 0.973587
 0.004100	 0.002648	 11953.815430	 0.983711
 0.004125	 0.009950	 15829.504883	 0.993979
 0.004150	 0.017090	 20831.955078	 1.004072
 0.004175	 0.023843	 27010.306641	 1.013664
 0.004200	 0.029992	 34216.816406	 1.022438
 0.004225	 0.035335	 42023.546875	 1.030093
 0.004250	 0.039693	 49692.667969	 1.036358
 0.004275	 0.042915	 56249.027344	 1.041003
 0.004300	 0.044884	 60673.449219	 1.043845
 0.004325	 0.045520	 62174.625000	 1.044763
 0.004350	 0.044783	 60438.203125	 1.043699
 0.004375	 0.042679	 55739.093750	 1.040661
 0.004400	 0.039253	 48858.906250	 1.035725
 0.004425	 0.034596	 40846.214844	 1.029033
 0.004450	 0.028836	 32729.273438	 1.020786
 0.004475	 0.022138	 25296.003906	 1.011238
 0.004500	 0.014698	 19000.884766	 1.000685
 0.004525	 0.006737	 13989.395508	 0.989454
 0.004550	-0.001505	 10189.017578	 0.977894
 0.004575	-0.009777	 7412.463379	 0.966360
 0.004600	-0.017825	 5439.141602	 0.955204
 0.004625	-0.025400	 4064.382324	 0.944762
 0.004650	-0.032267	 3121.040039	 0.935347
 0.004675	-0.038209	 2483.408691	 0.927238
 0.004700	-0.043038	 2062.467773	 0.920674
 0.004725	-0.046599	 1798.468628	 0.915848
 0.004750	-0.048776	 1654.006104	 0.912903
 0.004775	-0.049495	 1608.876587	 0.911932
 0.004800	-0.048728	 1657.069702	 0.912968
 0.004825	-0.046491	 1805.936035	 0.915993
 0.004850	-0.042848	 2077.565674	 0.920931
 0.004875	-0.037905	 2512.534668	 0.927651
 0.004900	-0.031811	 3176.211182	 0.935970
 0.004925	-0.024749	 4167.528809	 0.945658
 0.004950	-0.016932	 5629.168457	 0.956439
 0.004975	-0.008599	 7755.947754	 0.967998
 0.005000	-0.000004	 10794.632812	 0.979995
 0.005025	 0.008592	 15023.903320	 0.992065
 0.005050	 0.016925	 20700.416016	 1.003838
 0.005075	 0.024742	 27961.082031	 1.014945
 0.005100	 0.031805	 36688.992188	 1.025033
 0.005125	 0.037901	 46381.898438	 1.033779
 0.005150	 0.042844	 56094.945312	 1.040900
 0.005175	 0.046488	 64535.082031	 1.046164
 0.005200	 0.048726	 70336.117188	 1.049404
 0.005225	 0.049495	 72446.593750	 1.050518
 0.005250	 0.048777	 70473.367188	 1.049477
 0.005275	 0.046601	 64815.679688	 1.046327
 0.005300	 0.043041	 56521.675781	 1.041184
 0.005325	 0.038213	 46943.062500	 1.034229
 0.005350	 0.032272	 37353.824219	 1.025702
 0.005375	 0.025407	 28684.796875	 1.015892
 0.005400	 0.017832	 21435.052734	 1.005123
 0.005425	 0.009784	 15728.868164	 0.993745
 0.005450	 0.001512	 11442.715820	 0.982118
 0.005475	-0.006730	 8334.128906	 0.970601
 0.005500	-0.014691	 6135.917480	 0.959541
 0.005525	-0.022132	 4608.845703	 0.949261
 0.005550	-0.028831	 3562.012939	 0.940053
 0.005575	-0.034592	 2854.073486	 0.932170
 0.005600	-0.039250	 2385.921875	 0.925821
 0.005625	-0.042676	 2091.324463	 0.921164
 0.005650	-0.044782	 1928.635620	 0.918308
 0.005675	-0.045520	 1874.686401	 0.917309
 0.005700	-0.044885	 1920.982178	 0.918168
 0.005725	-0.042918	 2071.992188	 0.920836
 0.005750	-0.039697	 2345.273193	 0.925213
 0.005775	-0.035339	 2773.177002	 0.931150
 0.005800	-0.029997	 3405.788330	 0.938455
 0.005825	-0.023848	 4314.371094	 0.946897
 0.005850	-0.017096	 5593.835938	 0.956212
 0.005875	-0.009956	 7361.536133	 0.966111
 0.005900	-0.002655	 9748.291992	 0.976287
 0.005925	 0.004582	 12876.793945	 0.986425
 0.005950	 0.011534	 16823.927734	 0.996214
 0.005975	 0.017994	 21568.890625	 1.005353
 0.006000	 0.023774	 26938.589844	 1.013566
 0.006025	 0.028711	 32572.714844	 1.020608
 0.006050	 0.032674	 37935.769531	 1.026278
 0.006075	 0.035563	 42393.878906	 1.030421
 0.006100	 0.037315	 45348.308594	 1.032937
 0.006125	 0.037903	 46386.312500	 1.033783
 0.006150	 0.037340	 45392.031250	 1.032973
 0.006175	 0.035672	 42571.933594	 1.030577
 0.006200	 0.032981	 38386.445312	 1.026718
 0.006225	 0.029379	 33419.992188	 1.021562
 0.006250	 0.025003	 28242.658203	 1.015316
 0.006275	 0.020011	 23308.847656	 1.008215
 0.006300	 0.014576	 18912.568359	 1.000513
 0.006325	 0.008883	 15193.053711	 0.992475
 0.006350	 0.003115	 12170.343750	 0.984366
 0.006375	-0.002545	 9789.644531	 0.976441
 0.006400	-0.007923	 7960.250000	 0.968939
 0.006425	-0.012862	 6583.040527	 0.962076
 0.006450	-0.017223	 5566.542480	 0.956036
 0.006475	-0.020890	 4834.262207	 0.950972
 0.006500	-0.023775	 4326.555176	 0.946998
 0.006525	-0.025818	 3999.660400	 0.944189
 0.006550	-0.026988	 3823.629639	 0.942581
 0.006575	-0.027285	 3780.110840	 0.942173
 0.006600	-0.026739	 3860.391602	 0.942923
 0.006625	-0.025404	 4063.773193	 0.944757
 0.006650	-0.023360	 4396.131348	 0.947569
 0.006675	-0.020707	 4868.392578	 0.951224
 0.006700	-0.017561	 5494.582520	 0.955568
 0.006725	-0.014050	 6289.053711	 0.960429
 0.006750	-0.010308	 7262.638672	 0.965622
 0.006775	-0.006470	 8417.673828	 0.970962
 0.006800	-0.002671	 9742.335938	 0.976265
 0.006825	 0.000967	 11205.315430	 0.981354
 0.006850	 0.004330	 12752.444336	 0.986071
 0.006875	 0.007321	 14307.082031	 0.990276
 0.006900	 0.009861	 15775.637695	 0.993854
 0.006925	 0.011894	 17058.302734	 0.996722
 0.006950	 0.013382	 18063.367188	 0.998824
 0.006975	 0.014313	 18721.843750	 1.000141
 0.007000	 0.014695	 18998.664062	 1.000680
 0.007025	 0.014556	 18897.388672	 1.000484
 0.007050	 0.013943	 18457.494141	 0.999618
 0.007075	 0.012920	 17745.429688	 0.998172
 0.007100	 0.011562	 16842.341797	 0.996254
 0.007125	 0.009953	 15831.705078	 0.993984
 0.007150	 0.008183	 14789.468750	 0.991489
 0.007175	 0.006341	 13777.947266	 0.988897
 0.007200	 0.004515	 12843.500977	 0.986331
 0.007225	 0.002786	 12017.129883	 0.983904
 0.007250	 0.001225	 11316.835938	 0.981715
 0.007275	-0.000110	 10750.669922	 0.979846
 0.007300	-0.001174	 10319.684570	 0.978358
 0.007325	-0.001939	 10020.331055	 0.977287
 0.007350	-0.002395	 9846.106445	 0.976650
 0.007375	-0.002548	 9788.448242	 0.976436
 0.007400	-0.002419	 9836.956055	 0.976616
 0.007425	-0.002046	 9979.090820	 0.977137
 0.007450	-0.001478	 10199.535156	 0.977932
 0.007475	-0.000774	 10479.458008	 0.978916
 0.007500	-0.000001	 10795.965820	 0.979999
 0.007525	 0.000773	 11122.053711	 0.981083
 0.007550	 0.001477	 11427.357422	 0.982069
 0.007575	 0.002046	 11679.897461	 0.982866
 0.007600	 0.002419	 11848.799805	 0.983389
 0.007625	 0.002548	 11907.686523	 0.983570
 0.007650	 0.002395	 11838.140625	 0.983357
 0.007675	 0.001940	 11632.499023	 0.982718
 0.007700	 0.001175	 11295.247070	 0.981646
 0.007725	 0.000112	 10842.595703	 0.980156
 0.007750	-0.001223	 10300.291992	 0.978289
 0.007775	-0.002783	 9700.148438	 0.976107
 0.007800	-0.004512	 9076.089844	 0.973693
 0.007825	-0.006338	 8460.547852	 0.971147
 0.007850	-0.008180	 7881.869629	 0.968581
 0.007875	-0.009951	 7362.935547	 0.966118
 0.007900	-0.011560	 6921.037109	 0.963882
 0.007925	-0.012919	 6568.713867	 0.961997
 0.007950	-0.013942	 6315.181641	 0.960578
 0.007975	-0.014555	 6168.041504	 0.959729
 0.008000	-0.014695	 6135.015137	 0.959535
 0.008025	-0.014314	 6225.571777	 0.960063
 0.008050	-0.013383	 6452.355957	 0.961353
 0.008075	-0.011896	 6832.358887	 0.963417
 0.008100	-0.009864	 7387.711914	 0.966239
 0.008125	-0.007324	 8145.867676	 0.969774
 0.008150	-0.004333	 9138.778320	 0.973943
 0.008175	-0.000971	 10400.458008	 0.978641
 0.008200	 0.002666	 11962.186523	 0.983737
 0.008225	 0.006466	 13844.616211	 0.989074
 0.008250	 0.010304	 16046.498047	 0.994478
 0.008275	 0.014046	 18530.767578	 0.999763
 0.008300	 0.017558	 21210.462891	 1.004735
 0.008325	 0.020704	 23939.074219	 1.009200
 0.008350	 0.023358	 26511.371094	 1.012974
 0.008375	 0.025402	 28680.359375	 1.015886
 0.008400	 0.026738	 30192.208984	 1.017791
 0.008425	 0.027285	 30834.332031	 1.018572
 0.008450	 0.026988	 30484.294922	 1.018148
 0.008475	 0.025819	 29143.482422	 1.016480
 0.008500	 0.023777	 26942.265625	 1.013571
 0.008525	 0.020893	 24113.308594	 1.009468
 0.008550	 0.017226	 20941.636719	 1.004265
 0.008575	 0.012866	 17708.300781	 0.998095
 0.008600	 0.007927	 14644.750977	 0.991129
 0.008625	 0.002549	 11908.162109	 0.983572
 0.008650	-0.003111	 9578.765625	 0.975650
 0.008675	-0.008879	 7673.009766	 0.967609
 0.008700	-0.014573	 6163.914062	 0.959705
 0.008725	-0.020007	 5001.272461	 0.952190
 0.008750	-0.024999	 4127.510254	 0.945313
 0.008775	-0.029376	 3488.015137	 0.939305
 0.008800	-0.032979	 3036.662842	 0.934373
 0.008825	-0.035671	 2738.042480	 0.930697
 0.008850	-0.037339	 2567.867676	 0.928422
 0.008875	-0.037903	 2512.760742	 0.927654
 0.008900	-0.037315	 2570.212891	 0.928455
 0.008925	-0.035564	 2749.267334	 0.930842
 0.008950	-0.032676	 3072.290039	 0.934787
 0.008975	-0.028714	 3578.076904	 0.940213
 0.009000	-0.023776	 4326.361328	 0.946996
 0.009025	-0.017996	 5403.380859	 0.954967
 0.009050	-0.011537	 6927.291992	 0.963915
 0.009075	-0.004585	 9050.705078	 0.973591
 0.009100	 0.002652	 11955.360352	 0.983716
 0.009125	 0.009953	 15831.620117	 0.993984
 0.009150	 0.017093	 20834.736328	 1.004076
 0.009175	 0.023846	 27013.781250	 1.013669
 0.009200	 0.029995	 34220.878906	 1.022442
 0.009225	 0.035338	 42027.910156	 1.030097
 0.009250	 0.039695	 49696.832031	 1.036361
 0.009275	 0.042917	 56252.367188	 1.041005
 0.009300	 0.044885	 60675.316406	 1.043846
 0.009325	 0.045520	 62174.550781	 1.044763
 0.009350	 0.044782	 60436.062500	 1.043698
 0.009375	 0.042677	 55735.132812	 1.040658
 0.009400	 0.039251	 48853.691406	 1.035721
 0.009425	 0.034592	 40840.445312	 1.029028
 0.009450	 0.028831	 32723.595703	 1.020780
 0.009475	 0.022133	 25290.896484	 1.011230
 0.009500	 0.014692	 18996.597656	 1.000676
 0.009525	 0.006730	 13985.993164	 0.989445
 0.009550	-0.001512	 10186.431641	 0.977885
 0.009575	-0.009783	 7410.560547	 0.966351
 0.009600	-0.017831	 5437.774414	 0.955195
 0.009625	-0.025406	 4063.416748	 0.944754
 0.009650	-0.032272	 3120.368408	 0.935340
 0.009675	-0.038213	 2482.949219	 0.927231
 0.009700	-0.043041	 2062.164307	 0.920668
 0.009725	-0.046601	 1798.283813	 0.915844
 0.009750	-0.048777	 1653.918701	 0.912902
 0.009775	-0.049495	 1608.877930	 0.911932
 0.009800	-0.048726	 1657.164185	 0.912970
 0.009825	-0.046488	 1806.141235	 0.915997
 0.009850	-0.042844	 2077.916748	 0.920937
 0.009875	-0.037900	 2513.090820	 0.927659
 0.009900	-0.031804	 3177.064209	 0.935980
 0.009925	-0.024741	 4168.816895	 0.945669
 0.009950	-0.016923	 5631.089844	 0.956451
 0.009975	-0.008590	 7758.770020	 0.968011
