TBJ_JFET  
Vin = 0.05*sen(2*PI*1000.0*t)
Is = 1.00e-11  Idss = 2.00
Vt = 0.026     Vp   = -2.00
Tensiones de polarizaci√≥n
Vbe = 0.700
Vgs = -0.600

t [s]   	Vin [V] 	Ic [mA] 	Id [mA] 	
 0.000000	 0.000000	 4.926559	 0.980000
 0.000005	 0.001571	 5.233322	 0.982200
 0.000010	 0.003140	 5.558853	 0.984400
 0.000015	 0.004705	 5.903930	 0.986599
 0.000020	 0.006267	 6.269309	 0.988793
 0.000025	 0.007822	 6.655717	 0.990981
 0.000030	 0.009369	 7.063843	 0.993161
 0.000035	 0.010907	 7.494330	 0.995329
 0.000040	 0.012434	 7.947762	 0.997486
 0.000045	 0.013950	 8.424649	 0.999627
 0.000050	 0.015451	 8.925425	 1.001751
 0.000055	 0.016937	 9.450423	 1.003855
 0.000060	 0.018406	 9.999872	 1.005938
 0.000065	 0.019857	 10.573874	 1.007998
 0.000070	 0.021289	 11.172402	 1.010031
 0.000075	 0.022700	 11.795275	 1.012037
 0.000080	 0.024088	 12.442148	 1.014013
 0.000085	 0.025452	 13.112501	 1.015957
 0.000090	 0.026791	 13.805629	 1.017867
 0.000095	 0.028104	 14.520622	 1.019741
 0.000100	 0.029389	 15.256360	 1.021577
 0.000105	 0.030645	 16.011507	 1.023373
 0.000110	 0.031871	 16.784494	 1.025128
 0.000115	 0.033066	 17.573530	 1.026838
 0.000120	 0.034227	 18.376579	 1.028504
 0.000125	 0.035355	 19.191372	 1.030122
 0.000130	 0.036448	 20.015419	 1.031692
 0.000135	 0.037506	 20.845985	 1.033211
 0.000140	 0.038526	 21.680134	 1.034678
 0.000145	 0.039508	 22.514711	 1.036091
 0.000150	 0.040451	 23.346380	 1.037449
 0.000155	 0.041354	 24.171627	 1.038751
 0.000160	 0.042216	 24.986795	 1.039994
 0.000165	 0.043037	 25.788097	 1.041178
 0.000170	 0.043815	 26.571655	 1.042301
 0.000175	 0.044550	 27.333525	 1.043363
 0.000180	 0.045241	 28.069735	 1.044361
 0.000185	 0.045888	 28.776314	 1.045296
 0.000190	 0.046489	 29.449345	 1.046165
 0.000195	 0.047044	 30.084984	 1.046968
 0.000200	 0.047553	 30.679504	 1.047705
 0.000205	 0.048015	 31.229361	 1.048373
 0.000210	 0.048429	 31.731190	 1.048973
 0.000215	 0.048796	 32.181870	 1.049505
 0.000220	 0.049114	 32.578556	 1.049966
 0.000225	 0.049384	 32.918705	 1.050358
 0.000230	 0.049606	 33.200115	 1.050678
 0.000235	 0.049778	 33.420944	 1.050928
 0.000240	 0.049901	 33.579735	 1.051107
 0.000245	 0.049975	 33.675438	 1.051214
 0.000250	 0.050000	 33.707417	 1.051250
 0.000255	 0.049975	 33.675449	 1.051214
 0.000260	 0.049901	 33.579754	 1.051107
 0.000265	 0.049778	 33.420967	 1.050928
 0.000270	 0.049606	 33.200142	 1.050678
 0.000275	 0.049384	 32.918739	 1.050358
 0.000280	 0.049114	 32.578598	 1.049966
 0.000285	 0.048796	 32.181915	 1.049505
 0.000290	 0.048429	 31.731239	 1.048974
 0.000295	 0.048015	 31.229414	 1.048373
 0.000300	 0.047553	 30.679562	 1.047705
 0.000305	 0.047044	 30.085039	 1.046968
 0.000310	 0.046489	 29.449408	 1.046165
 0.000315	 0.045888	 28.776381	 1.045296
 0.000320	 0.045241	 28.069798	 1.044361
 0.000325	 0.044550	 27.333588	 1.043363
 0.000330	 0.043815	 26.571720	 1.042301
 0.000335	 0.043037	 25.788160	 1.041178
 0.000340	 0.042216	 24.986856	 1.039994
 0.000345	 0.041354	 24.171686	 1.038751
 0.000350	 0.040451	 23.346436	 1.037449
 0.000355	 0.039508	 22.514765	 1.036091
 0.000360	 0.038526	 21.680185	 1.034678
 0.000365	 0.037506	 20.846037	 1.033211
 0.000370	 0.036448	 20.015467	 1.031692
 0.000375	 0.035355	 19.191420	 1.030123
 0.000380	 0.034227	 18.376623	 1.028504
 0.000385	 0.033066	 17.573570	 1.026839
 0.000390	 0.031871	 16.784536	 1.025128
 0.000395	 0.030645	 16.011545	 1.023373
 0.000400	 0.029389	 15.256396	 1.021577
 0.000405	 0.028104	 14.520656	 1.019741
 0.000410	 0.026791	 13.805660	 1.017867
 0.000415	 0.025452	 13.112532	 1.015957
 0.000420	 0.024088	 12.442175	 1.014013
 0.000425	 0.022700	 11.795300	 1.012037
 0.000430	 0.021289	 11.172426	 1.010031
 0.000435	 0.019857	 10.573896	 1.007998
 0.000440	 0.018406	 9.999891	 1.005938
 0.000445	 0.016937	 9.450442	 1.003855
 0.000450	 0.015451	 8.925442	 1.001751
 0.000455	 0.013950	 8.424664	 0.999627
 0.000460	 0.012435	 7.947775	 0.997486
 0.000465	 0.010907	 7.494343	 0.995330
 0.000470	 0.009369	 7.063854	 0.993161
 0.000475	 0.007822	 6.655726	 0.990981
 0.000480	 0.006267	 6.269318	 0.988793
 0.000485	 0.004705	 5.903938	 0.986599
 0.000490	 0.003140	 5.558861	 0.984400
 0.000495	 0.001571	 5.233331	 0.982200
 0.000500	 0.000000	 4.926569	 0.980000
 0.000505	-0.001570	 4.637790	 0.977803
 0.000510	-0.003139	 4.366198	 0.975610
 0.000515	-0.004705	 4.111000	 0.973424
 0.000520	-0.006267	 3.871409	 0.971246
 0.000525	-0.007822	 3.646650	 0.969080
 0.000530	-0.009369	 3.435959	 0.966927
 0.000535	-0.010907	 3.238592	 0.964790
 0.000540	-0.012434	 3.053826	 0.962669
 0.000545	-0.013949	 2.880961	 0.960568
 0.000550	-0.015451	 2.719321	 0.958488
 0.000555	-0.016937	 2.568255	 0.956432
 0.000560	-0.018406	 2.427141	 0.954401
 0.000565	-0.019857	 2.295384	 0.952397
 0.000570	-0.021289	 2.172416	 0.950422
 0.000575	-0.022699	 2.057698	 0.948479
 0.000580	-0.024088	 1.950718	 0.946568
 0.000585	-0.025452	 1.850991	 0.944691
 0.000590	-0.026791	 1.758060	 0.942851
 0.000595	-0.028104	 1.671494	 0.941049
 0.000600	-0.029389	 1.590886	 0.939287
 0.000605	-0.030645	 1.515856	 0.937566
 0.000610	-0.031871	 1.446045	 0.935888
 0.000615	-0.033065	 1.381119	 0.934255
 0.000620	-0.034227	 1.320764	 0.932668
 0.000625	-0.035355	 1.264690	 0.931128
 0.000630	-0.036448	 1.212622	 0.929637
 0.000635	-0.037505	 1.164307	 0.928196
 0.000640	-0.038525	 1.119510	 0.926806
 0.000645	-0.039508	 1.078012	 0.925470
 0.000650	-0.040451	 1.039610	 0.924187
 0.000655	-0.041354	 1.004116	 0.922960
 0.000660	-0.042216	 0.971358	 0.921788
 0.000665	-0.043037	 0.941175	 0.920674
 0.000670	-0.043815	 0.913421	 0.919619
 0.000675	-0.044550	 0.887961	 0.918622
 0.000680	-0.045241	 0.864671	 0.917686
 0.000685	-0.045888	 0.843440	 0.916810
 0.000690	-0.046489	 0.824164	 0.915996
 0.000695	-0.047044	 0.806751	 0.915245
 0.000700	-0.047553	 0.791117	 0.914557
 0.000705	-0.048015	 0.777187	 0.913932
 0.000710	-0.048429	 0.764896	 0.913372
 0.000715	-0.048796	 0.754184	 0.912876
 0.000720	-0.049114	 0.745001	 0.912446
 0.000725	-0.049384	 0.737302	 0.912081
 0.000730	-0.049606	 0.731052	 0.911782
 0.000735	-0.049778	 0.726222	 0.911550
 0.000740	-0.049901	 0.722787	 0.911383
 0.000745	-0.049975	 0.720733	 0.911283
 0.000750	-0.050000	 0.720049	 0.911250
 0.000755	-0.049975	 0.720732	 0.911283
 0.000760	-0.049901	 0.722786	 0.911383
 0.000765	-0.049778	 0.726219	 0.911550
 0.000770	-0.049606	 0.731049	 0.911782
 0.000775	-0.049384	 0.737298	 0.912081
 0.000780	-0.049114	 0.744996	 0.912446
 0.000785	-0.048796	 0.754178	 0.912876
 0.000790	-0.048429	 0.764890	 0.913372
 0.000795	-0.048015	 0.777180	 0.913932
 0.000800	-0.047553	 0.791109	 0.914556
 0.000805	-0.047044	 0.806742	 0.915245
 0.000810	-0.046489	 0.824154	 0.915996
 0.000815	-0.045888	 0.843429	 0.916810
 0.000820	-0.045242	 0.864659	 0.917685
 0.000825	-0.044551	 0.887947	 0.918622
 0.000830	-0.043816	 0.913406	 0.919618
 0.000835	-0.043037	 0.941159	 0.920674
 0.000840	-0.042217	 0.971340	 0.921788
 0.000845	-0.041354	 1.004097	 0.922959
 0.000850	-0.040451	 1.039589	 0.924186
 0.000855	-0.039508	 1.077990	 0.925469
 0.000860	-0.038526	 1.119486	 0.926806
 0.000865	-0.037506	 1.164281	 0.928195
 0.000870	-0.036449	 1.212594	 0.929636
 0.000875	-0.035356	 1.264660	 0.931127
 0.000880	-0.034228	 1.320732	 0.932667
 0.000885	-0.033066	 1.381084	 0.934254
 0.000890	-0.031872	 1.446007	 0.935888
 0.000895	-0.030646	 1.515815	 0.937565
 0.000900	-0.029390	 1.590843	 0.939286
 0.000905	-0.028105	 1.671447	 0.941048
 0.000910	-0.026792	 1.758010	 0.942850
 0.000915	-0.025453	 1.850938	 0.944690
 0.000920	-0.024088	 1.950661	 0.946567
 0.000925	-0.022700	 2.057637	 0.948477
 0.000930	-0.021290	 2.172351	 0.950421
 0.000935	-0.019858	 2.295314	 0.952396
 0.000940	-0.018407	 2.427066	 0.954400
 0.000945	-0.016938	 2.568174	 0.956431
 0.000950	-0.015452	 2.719234	 0.958487
 0.000955	-0.013950	 2.880869	 0.960567
 0.000960	-0.012435	 3.053727	 0.962668
 0.000965	-0.010908	 3.238486	 0.964788
 0.000970	-0.009370	 3.435846	 0.966926
 0.000975	-0.007822	 3.646529	 0.969079
 0.000980	-0.006267	 3.871284	 0.971245
 0.000985	-0.004706	 4.110868	 0.973422
 0.000990	-0.003140	 4.366061	 0.975609
 0.000995	-0.001571	 4.637648	 0.977801
 0.001000	-0.000001	 4.926422	 0.979999
 0.001005	 0.001570	 5.233178	 0.982199
 0.001010	 0.003139	 5.558703	 0.984399
 0.001015	 0.004705	 5.903774	 0.986598
 0.001020	 0.006266	 6.269147	 0.988792
 0.001025	 0.007821	 6.655549	 0.990980
 0.001030	 0.009368	 7.063669	 0.993160
 0.001035	 0.010907	 7.494150	 0.995329
 0.001040	 0.012434	 7.947575	 0.997485
 0.001045	 0.013949	 8.424457	 0.999626
 0.001050	 0.015450	 8.925226	 1.001750
 0.001055	 0.016936	 9.450219	 1.003854
 0.001060	 0.018406	 9.999662	 1.005937
 0.001065	 0.019857	 10.573661	 1.007997
 0.001070	 0.021288	 11.172185	 1.010030
 0.001075	 0.022699	 11.795053	 1.012036
 0.001080	 0.024087	 12.441921	 1.014012
 0.001085	 0.025452	 13.112273	 1.015956
 0.001090	 0.026791	 13.805398	 1.017866
 0.001095	 0.028104	 14.520389	 1.019740
 0.001100	 0.029389	 15.256126	 1.021576
 0.001105	 0.030645	 16.011272	 1.023373
 0.001110	 0.031871	 16.784262	 1.025127
 0.001115	 0.033065	 17.573299	 1.026838
 0.001120	 0.034227	 18.376350	 1.028504
 0.001125	 0.035355	 19.191147	 1.030122
 0.001130	 0.036448	 20.015198	 1.031692
 0.001135	 0.037505	 20.845768	 1.033211
 0.001140	 0.038525	 21.679922	 1.034678
 0.001145	 0.039507	 22.514507	 1.036091
 0.001150	 0.040451	 23.346186	 1.037449
 0.001155	 0.041354	 24.171444	 1.038750
 0.001160	 0.042216	 24.986620	 1.039994
 0.001165	 0.043037	 25.787935	 1.041178
 0.001170	 0.043815	 26.571503	 1.042301
 0.001175	 0.044550	 27.333384	 1.043363
 0.001180	 0.045241	 28.069605	 1.044361
 0.001185	 0.045888	 28.776199	 1.045295
 0.001190	 0.046489	 29.449238	 1.046165
 0.001195	 0.047044	 30.084888	 1.046968
 0.001200	 0.047553	 30.679424	 1.047704
 0.001205	 0.048015	 31.229290	 1.048373
 0.001210	 0.048429	 31.731125	 1.048973
 0.001215	 0.048796	 32.181816	 1.049505
 0.001220	 0.049114	 32.578514	 1.049966
 0.001225	 0.049384	 32.918671	 1.050358
 0.001230	 0.049606	 33.200092	 1.050678
 0.001235	 0.049778	 33.420929	 1.050928
 0.001240	 0.049901	 33.579727	 1.051107
 0.001245	 0.049975	 33.675434	 1.051214
 0.001250	 0.050000	 33.707417	 1.051250
 0.001255	 0.049975	 33.675453	 1.051214
 0.001260	 0.049901	 33.579762	 1.051107
 0.001265	 0.049778	 33.420979	 1.050928
 0.001270	 0.049606	 33.200153	 1.050678
 0.001275	 0.049384	 32.918747	 1.050358
 0.001280	 0.049114	 32.578606	 1.049966
 0.001285	 0.048796	 32.181923	 1.049505
 0.001290	 0.048429	 31.731243	 1.048974
 0.001295	 0.048015	 31.229420	 1.048373
 0.001300	 0.047553	 30.679565	 1.047705
 0.001305	 0.047044	 30.085039	 1.046968
 0.001310	 0.046489	 29.449398	 1.046165
 0.001315	 0.045888	 28.776367	 1.045296
 0.001320	 0.045241	 28.069782	 1.044361
 0.001325	 0.044550	 27.333569	 1.043363
 0.001330	 0.043815	 26.571693	 1.042301
 0.001335	 0.043037	 25.788130	 1.041178
 0.001340	 0.042216	 24.986820	 1.039994
 0.001345	 0.041354	 24.171644	 1.038751
 0.001350	 0.040451	 23.346390	 1.037449
 0.001355	 0.039508	 22.514713	 1.036091
 0.001360	 0.038526	 21.680130	 1.034678
 0.001365	 0.037506	 20.845974	 1.033211
 0.001370	 0.036448	 20.015402	 1.031692
 0.001375	 0.035355	 19.191351	 1.030122
 0.001380	 0.034227	 18.376551	 1.028504
 0.001385	 0.033066	 17.573496	 1.026838
 0.001390	 0.031871	 16.784456	 1.025127
 0.001395	 0.030645	 16.011461	 1.023373
 0.001400	 0.029389	 15.256311	 1.021577
 0.001405	 0.028104	 14.520569	 1.019741
 0.001410	 0.026791	 13.805573	 1.017867
 0.001415	 0.025452	 13.112441	 1.015957
 0.001420	 0.024088	 12.442084	 1.014013
 0.001425	 0.022699	 11.795210	 1.012037
 0.001430	 0.021289	 11.172336	 1.010031
 0.001435	 0.019857	 10.573806	 1.007997
 0.001440	 0.018406	 9.999801	 1.005938
 0.001445	 0.016937	 9.450352	 1.003855
 0.001450	 0.015451	 8.925353	 1.001750
 0.001455	 0.013949	 8.424578	 0.999626
 0.001460	 0.012434	 7.947690	 0.997485
 0.001465	 0.010907	 7.494259	 0.995329
 0.001470	 0.009369	 7.063772	 0.993160
 0.001475	 0.007821	 6.655647	 0.990981
 0.001480	 0.006266	 6.269240	 0.988793
 0.001485	 0.004705	 5.903862	 0.986598
 0.001490	 0.003139	 5.558786	 0.984400
 0.001495	 0.001570	 5.233256	 0.982200
 0.001500	-0.000000	 4.926496	 0.980000
 0.001505	-0.001571	 4.637717	 0.977802
 0.001510	-0.003140	 4.366126	 0.975609
 0.001515	-0.004706	 4.110930	 0.973423
 0.001520	-0.006267	 3.871341	 0.971246
 0.001525	-0.007822	 3.646583	 0.969080
 0.001530	-0.009369	 3.435894	 0.966927
 0.001535	-0.010908	 3.238529	 0.964789
 0.001540	-0.012435	 3.053765	 0.962668
 0.001545	-0.013950	 2.880902	 0.960567
 0.001550	-0.015451	 2.719264	 0.958488
 0.001555	-0.016937	 2.568200	 0.956431
 0.001560	-0.018407	 2.427089	 0.954400
 0.001565	-0.019858	 2.295334	 0.952396
 0.001570	-0.021289	 2.172368	 0.950421
 0.001575	-0.022700	 2.057652	 0.948478
 0.001580	-0.024088	 1.950673	 0.946567
 0.001585	-0.025453	 1.850948	 0.944690
 0.001590	-0.026792	 1.758019	 0.942850
 0.001595	-0.028105	 1.671454	 0.941049
 0.001600	-0.029390	 1.590849	 0.939286
 0.001605	-0.030646	 1.515820	 0.937565
 0.001610	-0.031872	 1.446011	 0.935888
 0.001615	-0.033066	 1.381086	 0.934254
 0.001620	-0.034228	 1.320734	 0.932667
 0.001625	-0.035356	 1.264661	 0.931127
 0.001630	-0.036449	 1.212594	 0.929636
 0.001635	-0.037506	 1.164281	 0.928195
 0.001640	-0.038526	 1.119485	 0.926806
 0.001645	-0.039508	 1.077989	 0.925469
 0.001650	-0.040451	 1.039588	 0.924186
 0.001655	-0.041354	 1.004095	 0.922959
 0.001660	-0.042217	 0.971338	 0.921788
 0.001665	-0.043037	 0.941157	 0.920674
 0.001670	-0.043816	 0.913404	 0.919618
 0.001675	-0.044551	 0.887945	 0.918621
 0.001680	-0.045242	 0.864657	 0.917685
 0.001685	-0.045888	 0.843426	 0.916810
 0.001690	-0.046489	 0.824151	 0.915996
 0.001695	-0.047044	 0.806739	 0.915245
 0.001700	-0.047553	 0.791106	 0.914556
 0.001705	-0.048015	 0.777178	 0.913932
 0.001710	-0.048429	 0.764888	 0.913372
 0.001715	-0.048796	 0.754176	 0.912876
 0.001720	-0.049115	 0.744994	 0.912446
 0.001725	-0.049385	 0.737297	 0.912081
 0.001730	-0.049606	 0.731048	 0.911782
 0.001735	-0.049778	 0.726218	 0.911550
 0.001740	-0.049901	 0.722785	 0.911383
 0.001745	-0.049975	 0.720732	 0.911283
 0.001750	-0.050000	 0.720049	 0.911250
 0.001755	-0.049975	 0.720733	 0.911283
 0.001760	-0.049901	 0.722788	 0.911383
 0.001765	-0.049778	 0.726223	 0.911550
 0.001770	-0.049606	 0.731054	 0.911783
 0.001775	-0.049384	 0.737305	 0.912081
 0.001780	-0.049114	 0.745004	 0.912446
 0.001785	-0.048796	 0.754188	 0.912877
 0.001790	-0.048429	 0.764900	 0.913372
 0.001795	-0.048014	 0.777192	 0.913933
 0.001800	-0.047553	 0.791123	 0.914557
 0.001805	-0.047044	 0.806757	 0.915245
 0.001810	-0.046488	 0.824171	 0.915997
 0.001815	-0.045887	 0.843448	 0.916811
 0.001820	-0.045241	 0.864681	 0.917686
 0.001825	-0.044550	 0.887972	 0.918623
 0.001830	-0.043815	 0.913433	 0.919619
 0.001835	-0.043037	 0.941189	 0.920675
 0.001840	-0.042216	 0.971373	 0.921789
 0.001845	-0.041353	 1.004133	 0.922960
 0.001850	-0.040450	 1.039629	 0.924188
 0.001855	-0.039507	 1.078033	 0.925470
 0.001860	-0.038525	 1.119533	 0.926807
 0.001865	-0.037505	 1.164332	 0.928197
 0.001870	-0.036448	 1.212650	 0.929637
 0.001875	-0.035355	 1.264720	 0.931129
 0.001880	-0.034227	 1.320798	 0.932669
 0.001885	-0.033065	 1.381156	 0.934256
 0.001890	-0.031870	 1.446085	 0.935889
 0.001895	-0.030644	 1.515900	 0.937567
 0.001900	-0.029388	 1.590935	 0.939288
 0.001905	-0.028103	 1.671547	 0.941050
 0.001910	-0.026790	 1.758118	 0.942852
 0.001915	-0.025451	 1.851054	 0.944692
 0.001920	-0.024087	 1.950787	 0.946569
 0.001925	-0.022698	 2.057774	 0.948480
 0.001930	-0.021288	 2.172499	 0.950424
 0.001935	-0.019856	 2.295475	 0.952398
 0.001940	-0.018405	 2.427239	 0.954402
 0.001945	-0.016936	 2.568362	 0.956433
 0.001950	-0.015450	 2.719437	 0.958490
 0.001955	-0.013948	 2.881087	 0.960570
 0.001960	-0.012433	 3.053963	 0.962671
 0.001965	-0.010906	 3.238740	 0.964791
 0.001970	-0.009368	 3.436119	 0.966929
 0.001975	-0.007820	 3.646824	 0.969082
 0.001980	-0.006265	 3.871598	 0.971248
 0.001985	-0.004704	 4.111204	 0.973425
 0.001990	-0.003138	 4.366417	 0.975612
 0.001995	-0.001569	 4.638027	 0.977804
